#  E (eV)   dosup(E)     dosdw(E)   Int dos(E) EFermi =   20.044 eV
   5.000  0.0000E+00  0.0000E+00  0.8000E+01
   5.050  0.0000E+00  0.0000E+00  0.8000E+01
   5.100  0.0000E+00  0.0000E+00  0.8000E+01
   5.150  0.0000E+00  0.0000E+00  0.8000E+01
   5.200  0.0000E+00  0.0000E+00  0.8000E+01
   5.250  0.0000E+00  0.0000E+00  0.8000E+01
   5.300  0.0000E+00  0.0000E+00  0.8000E+01
   5.350  0.0000E+00  0.0000E+00  0.8000E+01
   5.400  0.0000E+00  0.0000E+00  0.8000E+01
   5.450  0.0000E+00  0.0000E+00  0.8000E+01
   5.500  0.0000E+00  0.0000E+00  0.8000E+01
   5.550  0.0000E+00  0.0000E+00  0.8000E+01
   5.600  0.0000E+00  0.0000E+00  0.8000E+01
   5.650  0.0000E+00  0.0000E+00  0.8000E+01
   5.700  0.0000E+00  0.0000E+00  0.8000E+01
   5.750  0.0000E+00  0.0000E+00  0.8000E+01
   5.800  0.0000E+00  0.0000E+00  0.8000E+01
   5.850  0.0000E+00  0.0000E+00  0.8000E+01
   5.900  0.0000E+00  0.0000E+00  0.8000E+01
   5.950  0.0000E+00  0.0000E+00  0.8000E+01
   6.000  0.0000E+00  0.0000E+00  0.8000E+01
   6.050  0.0000E+00  0.0000E+00  0.8000E+01
   6.100  0.0000E+00  0.0000E+00  0.8000E+01
   6.150  0.0000E+00  0.0000E+00  0.8000E+01
   6.200  0.0000E+00  0.0000E+00  0.8000E+01
   6.250  0.0000E+00  0.0000E+00  0.8000E+01
   6.300  0.0000E+00  0.0000E+00  0.8000E+01
   6.350  0.0000E+00  0.0000E+00  0.8000E+01
   6.400  0.0000E+00  0.0000E+00  0.8000E+01
   6.450  0.0000E+00  0.0000E+00  0.8000E+01
   6.500  0.0000E+00  0.0000E+00  0.8000E+01
   6.550  0.0000E+00  0.0000E+00  0.8000E+01
   6.600  0.0000E+00  0.0000E+00  0.8000E+01
   6.650  0.0000E+00  0.0000E+00  0.8000E+01
   6.700  0.0000E+00  0.0000E+00  0.8000E+01
   6.750  0.0000E+00  0.0000E+00  0.8000E+01
   6.800  0.0000E+00  0.0000E+00  0.8000E+01
   6.850  0.0000E+00  0.0000E+00  0.8000E+01
   6.900  0.0000E+00  0.0000E+00  0.8000E+01
   6.950  0.0000E+00  0.0000E+00  0.8000E+01
   7.000  0.0000E+00  0.0000E+00  0.8000E+01
   7.050  0.0000E+00  0.0000E+00  0.8000E+01
   7.100  0.0000E+00  0.0000E+00  0.8000E+01
   7.150  0.0000E+00  0.0000E+00  0.8000E+01
   7.200  0.0000E+00  0.0000E+00  0.8000E+01
   7.250  0.0000E+00  0.0000E+00  0.8000E+01
   7.300  0.0000E+00  0.0000E+00  0.8000E+01
   7.350  0.0000E+00  0.0000E+00  0.8000E+01
   7.400  0.0000E+00  0.0000E+00  0.8000E+01
   7.450  0.0000E+00  0.0000E+00  0.8000E+01
   7.500  0.0000E+00  0.0000E+00  0.8000E+01
   7.550  0.0000E+00  0.0000E+00  0.8000E+01
   7.600  0.0000E+00  0.0000E+00  0.8000E+01
   7.650  0.0000E+00  0.0000E+00  0.8000E+01
   7.700  0.0000E+00  0.0000E+00  0.8000E+01
   7.750  0.0000E+00  0.0000E+00  0.8000E+01
   7.800  0.0000E+00  0.0000E+00  0.8000E+01
   7.850  0.0000E+00  0.0000E+00  0.8000E+01
   7.900  0.0000E+00  0.0000E+00  0.8000E+01
   7.950  0.0000E+00  0.0000E+00  0.8000E+01
   8.000  0.0000E+00  0.0000E+00  0.8000E+01
   8.050  0.0000E+00  0.0000E+00  0.8000E+01
   8.100  0.0000E+00  0.0000E+00  0.8000E+01
   8.150  0.0000E+00  0.0000E+00  0.8000E+01
   8.200  0.0000E+00  0.0000E+00  0.8000E+01
   8.250  0.0000E+00  0.0000E+00  0.8000E+01
   8.300  0.0000E+00  0.0000E+00  0.8000E+01
   8.350  0.0000E+00  0.0000E+00  0.8000E+01
   8.400  0.0000E+00  0.0000E+00  0.8000E+01
   8.450  0.0000E+00  0.0000E+00  0.8000E+01
   8.500  0.0000E+00  0.0000E+00  0.8000E+01
   8.550  0.0000E+00  0.0000E+00  0.8000E+01
   8.600  0.0000E+00  0.0000E+00  0.8000E+01
   8.650  0.0000E+00  0.0000E+00  0.8000E+01
   8.700  0.0000E+00  0.0000E+00  0.8000E+01
   8.750  0.0000E+00  0.0000E+00  0.8000E+01
   8.800  0.0000E+00  0.0000E+00  0.8000E+01
   8.850  0.0000E+00  0.0000E+00  0.8000E+01
   8.900  0.0000E+00  0.0000E+00  0.8000E+01
   8.950  0.0000E+00  0.0000E+00  0.8000E+01
   9.000  0.0000E+00  0.0000E+00  0.8000E+01
   9.050  0.0000E+00  0.0000E+00  0.8000E+01
   9.100  0.0000E+00  0.0000E+00  0.8000E+01
   9.150  0.0000E+00  0.0000E+00  0.8000E+01
   9.200  0.0000E+00  0.0000E+00  0.8000E+01
   9.250  0.0000E+00  0.0000E+00  0.8000E+01
   9.300  0.0000E+00  0.0000E+00  0.8000E+01
   9.350  0.0000E+00  0.0000E+00  0.8000E+01
   9.400  0.0000E+00  0.0000E+00  0.8000E+01
   9.450  0.0000E+00  0.0000E+00  0.8000E+01
   9.500  0.0000E+00  0.0000E+00  0.8000E+01
   9.550  0.0000E+00  0.0000E+00  0.8000E+01
   9.600  0.0000E+00  0.0000E+00  0.8000E+01
   9.650  0.0000E+00  0.0000E+00  0.8000E+01
   9.700  0.0000E+00  0.0000E+00  0.8000E+01
   9.750  0.0000E+00  0.0000E+00  0.8000E+01
   9.800  0.0000E+00  0.0000E+00  0.8000E+01
   9.850  0.0000E+00  0.0000E+00  0.8000E+01
   9.900  0.0000E+00  0.0000E+00  0.8000E+01
   9.950  0.0000E+00  0.0000E+00  0.8000E+01
  10.000  0.0000E+00  0.0000E+00  0.8000E+01
  10.050  0.0000E+00  0.0000E+00  0.8000E+01
  10.100  0.0000E+00  0.0000E+00  0.8000E+01
  10.150  0.0000E+00  0.0000E+00  0.8000E+01
  10.200  0.0000E+00  0.0000E+00  0.8000E+01
  10.250  0.0000E+00  0.0000E+00  0.8000E+01
  10.300  0.0000E+00  0.0000E+00  0.8000E+01
  10.350  0.0000E+00  0.0000E+00  0.8000E+01
  10.400  0.0000E+00  0.0000E+00  0.8000E+01
  10.450  0.0000E+00  0.0000E+00  0.8000E+01
  10.500  0.0000E+00  0.0000E+00  0.8000E+01
  10.550  0.0000E+00  0.0000E+00  0.8000E+01
  10.600  0.0000E+00  0.0000E+00  0.8000E+01
  10.650  0.0000E+00  0.0000E+00  0.8000E+01
  10.700  0.0000E+00  0.0000E+00  0.8000E+01
  10.750  0.0000E+00  0.0000E+00  0.8000E+01
  10.800  0.0000E+00  0.0000E+00  0.8000E+01
  10.850  0.9945E-03  0.0000E+00  0.8000E+01
  10.900  0.6673E-02  0.0000E+00  0.8000E+01
  10.950  0.9229E-02  0.0000E+00  0.8001E+01
  11.000  0.1219E-01  0.0000E+00  0.8001E+01
  11.050  0.1433E-01  0.0000E+00  0.8002E+01
  11.100  0.1476E-01  0.0000E+00  0.8003E+01
  11.150  0.1636E-01  0.0000E+00  0.8003E+01
  11.200  0.1802E-01  0.1091E-04  0.8004E+01
  11.250  0.1973E-01  0.4870E-02  0.8005E+01
  11.300  0.2118E-01  0.8052E-02  0.8007E+01
  11.350  0.2235E-01  0.1066E-01  0.8008E+01
  11.400  0.2321E-01  0.1328E-01  0.8010E+01
  11.450  0.2414E-01  0.1442E-01  0.8012E+01
  11.500  0.2520E-01  0.1538E-01  0.8014E+01
  11.550  0.2635E-01  0.1697E-01  0.8016E+01
  11.600  0.2767E-01  0.1861E-01  0.8018E+01
  11.650  0.2905E-01  0.2029E-01  0.8021E+01
  11.700  0.3046E-01  0.2157E-01  0.8023E+01
  11.750  0.3117E-01  0.2250E-01  0.8026E+01
  11.800  0.3205E-01  0.2331E-01  0.8028E+01
  11.850  0.3297E-01  0.2423E-01  0.8031E+01
  11.900  0.3391E-01  0.2527E-01  0.8034E+01
  11.950  0.3481E-01  0.2648E-01  0.8037E+01
  12.000  0.3594E-01  0.2776E-01  0.8040E+01
  12.050  0.3711E-01  0.2910E-01  0.8044E+01
  12.100  0.3830E-01  0.3034E-01  0.8047E+01
  12.150  0.3946E-01  0.3097E-01  0.8050E+01
  12.200  0.4065E-01  0.3180E-01  0.8054E+01
  12.250  0.4175E-01  0.3263E-01  0.8058E+01
  12.300  0.4269E-01  0.3349E-01  0.8061E+01
  12.350  0.4348E-01  0.3441E-01  0.8065E+01
  12.400  0.4457E-01  0.3547E-01  0.8069E+01
  12.450  0.4568E-01  0.3655E-01  0.8073E+01
  12.500  0.4682E-01  0.3766E-01  0.8077E+01
  12.550  0.4794E-01  0.3873E-01  0.8082E+01
  12.600  0.4902E-01  0.3980E-01  0.8086E+01
  12.650  0.5032E-01  0.4078E-01  0.8091E+01
  12.700  0.5170E-01  0.4161E-01  0.8095E+01
  12.750  0.5294E-01  0.4234E-01  0.8100E+01
  12.800  0.5435E-01  0.4330E-01  0.8105E+01
  12.850  0.5580E-01  0.4427E-01  0.8110E+01
  12.900  0.5686E-01  0.4525E-01  0.8115E+01
  12.950  0.5810E-01  0.4623E-01  0.8120E+01
  13.000  0.5953E-01  0.4719E-01  0.8125E+01
  13.050  0.6096E-01  0.4829E-01  0.8131E+01
  13.100  0.6234E-01  0.4948E-01  0.8136E+01
  13.150  0.6401E-01  0.5051E-01  0.8142E+01
  13.200  0.6578E-01  0.5166E-01  0.8148E+01
  13.250  0.6744E-01  0.5284E-01  0.8154E+01
  13.300  0.6916E-01  0.5393E-01  0.8160E+01
  13.350  0.7078E-01  0.5476E-01  0.8166E+01
  13.400  0.7267E-01  0.5582E-01  0.8172E+01
  13.450  0.7486E-01  0.5695E-01  0.8179E+01
  13.500  0.7723E-01  0.5799E-01  0.8185E+01
  13.550  0.7978E-01  0.5923E-01  0.8192E+01
  13.600  0.8198E-01  0.6052E-01  0.8199E+01
  13.650  0.8396E-01  0.6185E-01  0.8206E+01
  13.700  0.8658E-01  0.6308E-01  0.8214E+01
  13.750  0.8948E-01  0.6436E-01  0.8221E+01
  13.800  0.9263E-01  0.6557E-01  0.8229E+01
  13.850  0.9588E-01  0.6687E-01  0.8237E+01
  13.900  0.9961E-01  0.6839E-01  0.8245E+01
  13.950  0.1037E+00  0.7000E-01  0.8254E+01
  14.000  0.1078E+00  0.7167E-01  0.8263E+01
  14.050  0.1119E+00  0.7303E-01  0.8272E+01
  14.100  0.1176E+00  0.7447E-01  0.8281E+01
  14.150  0.1242E+00  0.7596E-01  0.8291E+01
  14.200  0.1310E+00  0.7755E-01  0.8301E+01
  14.250  0.1392E+00  0.7944E-01  0.8312E+01
  14.300  0.1481E+00  0.8139E-01  0.8323E+01
  14.350  0.1571E+00  0.8321E-01  0.8335E+01
  14.400  0.1737E+00  0.8516E-01  0.8348E+01
  14.450  0.2005E+00  0.8727E-01  0.8361E+01
  14.500  0.2455E+00  0.8947E-01  0.8376E+01
  14.550  0.4009E+00  0.9164E-01  0.8399E+01
  14.600  0.4102E+00  0.9389E-01  0.8424E+01
  14.650  0.4345E+00  0.9645E-01  0.8449E+01
  14.700  0.4629E+00  0.9934E-01  0.8477E+01
  14.750  0.4827E+00  0.1025E+00  0.8505E+01
  14.800  0.5068E+00  0.1056E+00  0.8535E+01
  14.850  0.5190E+00  0.1082E+00  0.8566E+01
  14.900  0.5320E+00  0.1115E+00  0.8598E+01
  14.950  0.5536E+00  0.1152E+00  0.8631E+01
  15.000  0.5803E+00  0.1191E+00  0.8665E+01
  15.050  0.6024E+00  0.1233E+00  0.8701E+01
  15.100  0.6213E+00  0.1281E+00  0.8738E+01
  15.150  0.6475E+00  0.1341E+00  0.8776E+01
  15.200  0.6837E+00  0.1402E+00  0.8816E+01
  15.250  0.7333E+00  0.1451E+00  0.8858E+01
  15.300  0.8104E+00  0.1529E+00  0.8904E+01
  15.350  0.9515E+00  0.1616E+00  0.8956E+01
  15.400  0.1007E+01  0.1717E+00  0.9014E+01
  15.450  0.9162E+00  0.1847E+00  0.9072E+01
  15.500  0.7226E+00  0.1991E+00  0.9122E+01
  15.550  0.6433E+00  0.2174E+00  0.9166E+01
  15.600  0.5895E+00  0.2486E+00  0.9208E+01
  15.650  0.5584E+00  0.3452E+00  0.9251E+01
  15.700  0.5379E+00  0.3455E+00  0.9296E+01
  15.750  0.5287E+00  0.3523E+00  0.9340E+01
  15.800  0.5113E+00  0.3469E+00  0.9383E+01
  15.850  0.4547E+00  0.3491E+00  0.9426E+01
  15.900  0.3900E+00  0.3517E+00  0.9464E+01
  15.950  0.3444E+00  0.3544E+00  0.9500E+01
  16.000  0.3249E+00  0.3532E+00  0.9535E+01
  16.050  0.3072E+00  0.3546E+00  0.9568E+01
  16.100  0.2908E+00  0.3791E+00  0.9601E+01
  16.150  0.3119E+00  0.4089E+00  0.9635E+01
  16.200  0.8364E+00  0.4291E+00  0.9687E+01
  16.250  0.1351E+01  0.4472E+00  0.9763E+01
  16.300  0.1719E+01  0.4671E+00  0.9862E+01
  16.350  0.1600E+01  0.4856E+00  0.9972E+01
  16.400  0.1389E+01  0.5042E+00  0.1007E+02
  16.450  0.1161E+01  0.5299E+00  0.1016E+02
  16.500  0.1043E+01  0.5638E+00  0.1024E+02
  16.550  0.9654E+00  0.6047E+00  0.1032E+02
  16.600  0.9156E+00  0.6879E+00  0.1040E+02
  16.650  0.9094E+00  0.6961E+00  0.1048E+02
  16.700  0.9127E+00  0.7337E+00  0.1056E+02
  16.750  0.9298E+00  0.8376E+00  0.1065E+02
  16.800  0.9622E+00  0.6102E+00  0.1073E+02
  16.850  0.9558E+00  0.5393E+00  0.1081E+02
  16.900  0.8497E+00  0.4951E+00  0.1088E+02
  16.950  0.8654E+00  0.4645E+00  0.1094E+02
  17.000  0.9256E+00  0.4468E+00  0.1101E+02
  17.050  0.9938E+00  0.4260E+00  0.1108E+02
  17.100  0.1082E+01  0.4192E+00  0.1115E+02
  17.150  0.1328E+01  0.3849E+00  0.1124E+02
  17.200  0.1549E+01  0.3294E+00  0.1133E+02
  17.250  0.1367E+01  0.2982E+00  0.1141E+02
  17.300  0.1260E+01  0.2795E+00  0.1149E+02
  17.350  0.1216E+01  0.2602E+00  0.1157E+02
  17.400  0.1039E+01  0.2406E+00  0.1164E+02
  17.450  0.9912E+00  0.2225E+00  0.1170E+02
  17.500  0.9207E+00  0.2438E+00  0.1176E+02
  17.550  0.5249E+00  0.6239E+00  0.1182E+02
  17.600  0.4563E+00  0.9309E+00  0.1189E+02
  17.650  0.4208E+00  0.1024E+01  0.1195E+02
  17.700  0.3940E+00  0.1415E+01  0.1204E+02
  17.750  0.3731E+00  0.1381E+01  0.1213E+02
  17.800  0.3586E+00  0.1228E+01  0.1221E+02
  17.850  0.3602E+00  0.1104E+01  0.1229E+02
  17.900  0.3524E+00  0.1047E+01  0.1236E+02
  17.950  0.3490E+00  0.1038E+01  0.1243E+02
  18.000  0.3477E+00  0.1014E+01  0.1249E+02
  18.050  0.3544E+00  0.1010E+01  0.1256E+02
  18.100  0.3639E+00  0.1004E+01  0.1263E+02
  18.150  0.3855E+00  0.1016E+01  0.1270E+02
  18.200  0.4013E+00  0.1007E+01  0.1277E+02
  18.250  0.4143E+00  0.1013E+01  0.1284E+02
  18.300  0.4370E+00  0.1003E+01  0.1291E+02
  18.350  0.4654E+00  0.9348E+00  0.1298E+02
  18.400  0.5030E+00  0.8858E+00  0.1305E+02
  18.450  0.5602E+00  0.9020E+00  0.1312E+02
  18.500  0.6233E+00  0.9323E+00  0.1320E+02
  18.550  0.7154E+00  0.1003E+01  0.1328E+02
  18.600  0.9834E+00  0.1232E+01  0.1338E+02
  18.650  0.1007E+01  0.1287E+01  0.1349E+02
  18.700  0.1082E+01  0.1187E+01  0.1360E+02
  18.750  0.1170E+01  0.1133E+01  0.1372E+02
  18.800  0.1285E+01  0.1113E+01  0.1384E+02
  18.850  0.1396E+01  0.9395E+00  0.1395E+02
  18.900  0.1506E+01  0.8746E+00  0.1407E+02
  18.950  0.1535E+01  0.8178E+00  0.1419E+02
  19.000  0.1547E+01  0.7726E+00  0.1431E+02
  19.050  0.1636E+01  0.7687E+00  0.1443E+02
  19.100  0.2004E+01  0.7372E+00  0.1456E+02
  19.150  0.2053E+01  0.4081E+00  0.1469E+02
  19.200  0.1845E+01  0.3300E+00  0.1480E+02
  19.250  0.1982E+01  0.3147E+00  0.1491E+02
  19.300  0.2107E+01  0.2909E+00  0.1503E+02
  19.350  0.4690E+01  0.2760E+00  0.1517E+02
  19.400  0.1397E+01  0.2657E+00  0.1528E+02
  19.450  0.1198E+01  0.2588E+00  0.1536E+02
  19.500  0.1061E+01  0.2521E+00  0.1543E+02
  19.550  0.9633E+00  0.2480E+00  0.1549E+02
  19.600  0.8961E+00  0.2496E+00  0.1555E+02
  19.650  0.8388E+00  0.2516E+00  0.1561E+02
  19.700  0.7811E+00  0.2550E+00  0.1566E+02
  19.750  0.7424E+00  0.2628E+00  0.1571E+02
  19.800  0.7160E+00  0.2738E+00  0.1576E+02
  19.850  0.7059E+00  0.2775E+00  0.1581E+02
  19.900  0.6904E+00  0.2844E+00  0.1586E+02
  19.950  0.6830E+00  0.2931E+00  0.1591E+02
  20.000  0.6858E+00  0.3045E+00  0.1596E+02
  20.050  0.6790E+00  0.3249E+00  0.1601E+02
  20.100  0.6827E+00  0.3508E+00  0.1606E+02
  20.150  0.6626E+00  0.3813E+00  0.1611E+02
  20.200  0.6508E+00  0.4017E+00  0.1616E+02
  20.250  0.6667E+00  0.4448E+00  0.1621E+02
  20.300  0.6650E+00  0.5248E+00  0.1627E+02
  20.350  0.6208E+00  0.6312E+00  0.1634E+02
  20.400  0.4834E+00  0.6774E+00  0.1640E+02
  20.450  0.4170E+00  0.6954E+00  0.1645E+02
  20.500  0.3394E+00  0.7156E+00  0.1651E+02
  20.550  0.2692E+00  0.7496E+00  0.1656E+02
  20.600  0.2024E+00  0.7836E+00  0.1661E+02
  20.650  0.1638E+00  0.8344E+00  0.1666E+02
  20.700  0.1499E+00  0.8803E+00  0.1671E+02
  20.750  0.1493E+00  0.9442E+00  0.1676E+02
  20.800  0.1489E+00  0.1011E+01  0.1682E+02
  20.850  0.1481E+00  0.1121E+01  0.1688E+02
  20.900  0.1473E+00  0.1191E+01  0.1694E+02
  20.950  0.1469E+00  0.1206E+01  0.1701E+02
  21.000  0.1459E+00  0.1252E+01  0.1708E+02
  21.050  0.1445E+00  0.1278E+01  0.1715E+02
  21.100  0.1437E+00  0.1302E+01  0.1722E+02
  21.150  0.1430E+00  0.1387E+01  0.1730E+02
  21.200  0.1427E+00  0.1115E+01  0.1736E+02
  21.250  0.1427E+00  0.1301E+01  0.1743E+02
  21.300  0.1426E+00  0.1337E+01  0.1750E+02
  21.350  0.1420E+00  0.1334E+01  0.1758E+02
  21.400  0.1409E+00  0.1293E+01  0.1765E+02
  21.450  0.1407E+00  0.1489E+01  0.1773E+02
  21.500  0.1402E+00  0.1976E+01  0.1782E+02
  21.550  0.1395E+00  0.4260E+01  0.1796E+02
  21.600  0.1387E+00  0.1718E+01  0.1811E+02
  21.650  0.1378E+00  0.1298E+01  0.1819E+02
  21.700  0.1374E+00  0.1094E+01  0.1826E+02
  21.750  0.1369E+00  0.9626E+00  0.1831E+02
  21.800  0.1365E+00  0.8925E+00  0.1837E+02
  21.850  0.1360E+00  0.8343E+00  0.1842E+02
  21.900  0.1352E+00  0.7848E+00  0.1846E+02
  21.950  0.1344E+00  0.7328E+00  0.1851E+02
  22.000  0.1340E+00  0.7028E+00  0.1855E+02
  22.050  0.1334E+00  0.6880E+00  0.1859E+02
  22.100  0.1329E+00  0.6773E+00  0.1863E+02
  22.150  0.1325E+00  0.6552E+00  0.1867E+02
  22.200  0.1319E+00  0.7423E+00  0.1872E+02
  22.250  0.1312E+00  0.5097E+00  0.1875E+02
  22.300  0.1308E+00  0.4502E+00  0.1878E+02
  22.350  0.1301E+00  0.3755E+00  0.1881E+02
  22.400  0.1298E+00  0.3195E+00  0.1883E+02
  22.450  0.1294E+00  0.2677E+00  0.1885E+02
  22.500  0.1289E+00  0.2192E+00  0.1887E+02
  22.550  0.1282E+00  0.2137E+00  0.1889E+02
  22.600  0.1273E+00  0.2007E+00  0.1891E+02
  22.650  0.1267E+00  0.1941E+00  0.1892E+02
  22.700  0.1261E+00  0.1904E+00  0.1894E+02
  22.750  0.1256E+00  0.1858E+00  0.1895E+02
  22.800  0.1250E+00  0.1808E+00  0.1897E+02
  22.850  0.1242E+00  0.1778E+00  0.1899E+02
  22.900  0.1234E+00  0.1754E+00  0.1900E+02
  22.950  0.1224E+00  0.1735E+00  0.1902E+02
  23.000  0.1215E+00  0.1718E+00  0.1903E+02
  23.050  0.1207E+00  0.1699E+00  0.1904E+02
  23.100  0.1199E+00  0.1679E+00  0.1906E+02
  23.150  0.1191E+00  0.1657E+00  0.1907E+02
  23.200  0.1184E+00  0.1645E+00  0.1909E+02
  23.250  0.1178E+00  0.1634E+00  0.1910E+02
  23.300  0.1171E+00  0.1621E+00  0.1912E+02
  23.350  0.1164E+00  0.1609E+00  0.1913E+02
  23.400  0.1157E+00  0.1600E+00  0.1914E+02
  23.450  0.1150E+00  0.1580E+00  0.1916E+02
  23.500  0.1143E+00  0.1562E+00  0.1917E+02
  23.550  0.1135E+00  0.1554E+00  0.1918E+02
  23.600  0.1128E+00  0.1543E+00  0.1920E+02
  23.650  0.1119E+00  0.1530E+00  0.1921E+02
  23.700  0.1110E+00  0.1517E+00  0.1922E+02
  23.750  0.1102E+00  0.1505E+00  0.1924E+02
  23.800  0.1093E+00  0.1495E+00  0.1925E+02
  23.850  0.1084E+00  0.1483E+00  0.1926E+02
  23.900  0.1077E+00  0.1470E+00  0.1928E+02
  23.950  0.1070E+00  0.1460E+00  0.1929E+02
  24.000  0.1062E+00  0.1449E+00  0.1930E+02
  24.050  0.1051E+00  0.1438E+00  0.1931E+02
  24.100  0.1041E+00  0.1427E+00  0.1933E+02
  24.150  0.1023E+00  0.1418E+00  0.1934E+02
  24.200  0.1017E+00  0.1406E+00  0.1935E+02
  24.250  0.1010E+00  0.1392E+00  0.1936E+02
  24.300  0.9994E-01  0.1378E+00  0.1937E+02
  24.350  0.9897E-01  0.1369E+00  0.1939E+02
  24.400  0.9809E-01  0.1358E+00  0.1940E+02
  24.450  0.9706E-01  0.1342E+00  0.1941E+02
  24.500  0.9608E-01  0.1330E+00  0.1942E+02
  24.550  0.9515E-01  0.1319E+00  0.1943E+02
  24.600  0.9427E-01  0.1308E+00  0.1944E+02
  24.650  0.9350E-01  0.1297E+00  0.1945E+02
  24.700  0.9267E-01  0.1287E+00  0.1947E+02
  24.750  0.9182E-01  0.1276E+00  0.1948E+02
  24.800  0.9063E-01  0.1264E+00  0.1949E+02
  24.850  0.8958E-01  0.1252E+00  0.1950E+02
  24.900  0.8851E-01  0.1241E+00  0.1951E+02
  24.950  0.8757E-01  0.1230E+00  0.1952E+02
  25.000  0.8657E-01  0.1218E+00  0.1953E+02
