# E (eV)  ldosup(E)  ldosdw(E) pdosup(E)  pdosdw(E)  pdosup(E)  pdosdw(E)  pdosup(E)  pdosdw(E) 
   5.000  0.000E+00  0.000E+00  0.000E+00  0.000E+00  0.000E+00  0.000E+00  0.000E+00  0.000E+00
   5.050  0.000E+00  0.000E+00  0.000E+00  0.000E+00  0.000E+00  0.000E+00  0.000E+00  0.000E+00
   5.100  0.000E+00  0.000E+00  0.000E+00  0.000E+00  0.000E+00  0.000E+00  0.000E+00  0.000E+00
   5.150  0.000E+00  0.000E+00  0.000E+00  0.000E+00  0.000E+00  0.000E+00  0.000E+00  0.000E+00
   5.200  0.000E+00  0.000E+00  0.000E+00  0.000E+00  0.000E+00  0.000E+00  0.000E+00  0.000E+00
   5.250  0.000E+00  0.000E+00  0.000E+00  0.000E+00  0.000E+00  0.000E+00  0.000E+00  0.000E+00
   5.300  0.000E+00  0.000E+00  0.000E+00  0.000E+00  0.000E+00  0.000E+00  0.000E+00  0.000E+00
   5.350  0.000E+00  0.000E+00  0.000E+00  0.000E+00  0.000E+00  0.000E+00  0.000E+00  0.000E+00
   5.400  0.000E+00  0.000E+00  0.000E+00  0.000E+00  0.000E+00  0.000E+00  0.000E+00  0.000E+00
   5.450  0.000E+00  0.000E+00  0.000E+00  0.000E+00  0.000E+00  0.000E+00  0.000E+00  0.000E+00
   5.500  0.000E+00  0.000E+00  0.000E+00  0.000E+00  0.000E+00  0.000E+00  0.000E+00  0.000E+00
   5.550  0.000E+00  0.000E+00  0.000E+00  0.000E+00  0.000E+00  0.000E+00  0.000E+00  0.000E+00
   5.600  0.000E+00  0.000E+00  0.000E+00  0.000E+00  0.000E+00  0.000E+00  0.000E+00  0.000E+00
   5.650  0.000E+00  0.000E+00  0.000E+00  0.000E+00  0.000E+00  0.000E+00  0.000E+00  0.000E+00
   5.700  0.000E+00  0.000E+00  0.000E+00  0.000E+00  0.000E+00  0.000E+00  0.000E+00  0.000E+00
   5.750  0.000E+00  0.000E+00  0.000E+00  0.000E+00  0.000E+00  0.000E+00  0.000E+00  0.000E+00
   5.800  0.000E+00  0.000E+00  0.000E+00  0.000E+00  0.000E+00  0.000E+00  0.000E+00  0.000E+00
   5.850  0.000E+00  0.000E+00  0.000E+00  0.000E+00  0.000E+00  0.000E+00  0.000E+00  0.000E+00
   5.900  0.000E+00  0.000E+00  0.000E+00  0.000E+00  0.000E+00  0.000E+00  0.000E+00  0.000E+00
   5.950  0.000E+00  0.000E+00  0.000E+00  0.000E+00  0.000E+00  0.000E+00  0.000E+00  0.000E+00
   6.000  0.000E+00  0.000E+00  0.000E+00  0.000E+00  0.000E+00  0.000E+00  0.000E+00  0.000E+00
   6.050  0.000E+00  0.000E+00  0.000E+00  0.000E+00  0.000E+00  0.000E+00  0.000E+00  0.000E+00
   6.100  0.000E+00  0.000E+00  0.000E+00  0.000E+00  0.000E+00  0.000E+00  0.000E+00  0.000E+00
   6.150  0.000E+00  0.000E+00  0.000E+00  0.000E+00  0.000E+00  0.000E+00  0.000E+00  0.000E+00
   6.200  0.000E+00  0.000E+00  0.000E+00  0.000E+00  0.000E+00  0.000E+00  0.000E+00  0.000E+00
   6.250  0.000E+00  0.000E+00  0.000E+00  0.000E+00  0.000E+00  0.000E+00  0.000E+00  0.000E+00
   6.300  0.000E+00  0.000E+00  0.000E+00  0.000E+00  0.000E+00  0.000E+00  0.000E+00  0.000E+00
   6.350  0.000E+00  0.000E+00  0.000E+00  0.000E+00  0.000E+00  0.000E+00  0.000E+00  0.000E+00
   6.400  0.000E+00  0.000E+00  0.000E+00  0.000E+00  0.000E+00  0.000E+00  0.000E+00  0.000E+00
   6.450  0.000E+00  0.000E+00  0.000E+00  0.000E+00  0.000E+00  0.000E+00  0.000E+00  0.000E+00
   6.500  0.000E+00  0.000E+00  0.000E+00  0.000E+00  0.000E+00  0.000E+00  0.000E+00  0.000E+00
   6.550  0.000E+00  0.000E+00  0.000E+00  0.000E+00  0.000E+00  0.000E+00  0.000E+00  0.000E+00
   6.600  0.000E+00  0.000E+00  0.000E+00  0.000E+00  0.000E+00  0.000E+00  0.000E+00  0.000E+00
   6.650  0.000E+00  0.000E+00  0.000E+00  0.000E+00  0.000E+00  0.000E+00  0.000E+00  0.000E+00
   6.700  0.000E+00  0.000E+00  0.000E+00  0.000E+00  0.000E+00  0.000E+00  0.000E+00  0.000E+00
   6.750  0.000E+00  0.000E+00  0.000E+00  0.000E+00  0.000E+00  0.000E+00  0.000E+00  0.000E+00
   6.800  0.000E+00  0.000E+00  0.000E+00  0.000E+00  0.000E+00  0.000E+00  0.000E+00  0.000E+00
   6.850  0.000E+00  0.000E+00  0.000E+00  0.000E+00  0.000E+00  0.000E+00  0.000E+00  0.000E+00
   6.900  0.000E+00  0.000E+00  0.000E+00  0.000E+00  0.000E+00  0.000E+00  0.000E+00  0.000E+00
   6.950  0.000E+00  0.000E+00  0.000E+00  0.000E+00  0.000E+00  0.000E+00  0.000E+00  0.000E+00
   7.000  0.000E+00  0.000E+00  0.000E+00  0.000E+00  0.000E+00  0.000E+00  0.000E+00  0.000E+00
   7.050  0.000E+00  0.000E+00  0.000E+00  0.000E+00  0.000E+00  0.000E+00  0.000E+00  0.000E+00
   7.100  0.000E+00  0.000E+00  0.000E+00  0.000E+00  0.000E+00  0.000E+00  0.000E+00  0.000E+00
   7.150  0.000E+00  0.000E+00  0.000E+00  0.000E+00  0.000E+00  0.000E+00  0.000E+00  0.000E+00
   7.200  0.000E+00  0.000E+00  0.000E+00  0.000E+00  0.000E+00  0.000E+00  0.000E+00  0.000E+00
   7.250  0.000E+00  0.000E+00  0.000E+00  0.000E+00  0.000E+00  0.000E+00  0.000E+00  0.000E+00
   7.300  0.000E+00  0.000E+00  0.000E+00  0.000E+00  0.000E+00  0.000E+00  0.000E+00  0.000E+00
   7.350  0.000E+00  0.000E+00  0.000E+00  0.000E+00  0.000E+00  0.000E+00  0.000E+00  0.000E+00
   7.400  0.000E+00  0.000E+00  0.000E+00  0.000E+00  0.000E+00  0.000E+00  0.000E+00  0.000E+00
   7.450  0.000E+00  0.000E+00  0.000E+00  0.000E+00  0.000E+00  0.000E+00  0.000E+00  0.000E+00
   7.500  0.000E+00  0.000E+00  0.000E+00  0.000E+00  0.000E+00  0.000E+00  0.000E+00  0.000E+00
   7.550  0.000E+00  0.000E+00  0.000E+00  0.000E+00  0.000E+00  0.000E+00  0.000E+00  0.000E+00
   7.600  0.000E+00  0.000E+00  0.000E+00  0.000E+00  0.000E+00  0.000E+00  0.000E+00  0.000E+00
   7.650  0.000E+00  0.000E+00  0.000E+00  0.000E+00  0.000E+00  0.000E+00  0.000E+00  0.000E+00
   7.700  0.000E+00  0.000E+00  0.000E+00  0.000E+00  0.000E+00  0.000E+00  0.000E+00  0.000E+00
   7.750  0.000E+00  0.000E+00  0.000E+00  0.000E+00  0.000E+00  0.000E+00  0.000E+00  0.000E+00
   7.800  0.000E+00  0.000E+00  0.000E+00  0.000E+00  0.000E+00  0.000E+00  0.000E+00  0.000E+00
   7.850  0.000E+00  0.000E+00  0.000E+00  0.000E+00  0.000E+00  0.000E+00  0.000E+00  0.000E+00
   7.900  0.000E+00  0.000E+00  0.000E+00  0.000E+00  0.000E+00  0.000E+00  0.000E+00  0.000E+00
   7.950  0.000E+00  0.000E+00  0.000E+00  0.000E+00  0.000E+00  0.000E+00  0.000E+00  0.000E+00
   8.000  0.000E+00  0.000E+00  0.000E+00  0.000E+00  0.000E+00  0.000E+00  0.000E+00  0.000E+00
   8.050  0.000E+00  0.000E+00  0.000E+00  0.000E+00  0.000E+00  0.000E+00  0.000E+00  0.000E+00
   8.100  0.000E+00  0.000E+00  0.000E+00  0.000E+00  0.000E+00  0.000E+00  0.000E+00  0.000E+00
   8.150  0.000E+00  0.000E+00  0.000E+00  0.000E+00  0.000E+00  0.000E+00  0.000E+00  0.000E+00
   8.200  0.000E+00  0.000E+00  0.000E+00  0.000E+00  0.000E+00  0.000E+00  0.000E+00  0.000E+00
   8.250  0.000E+00  0.000E+00  0.000E+00  0.000E+00  0.000E+00  0.000E+00  0.000E+00  0.000E+00
   8.300  0.000E+00  0.000E+00  0.000E+00  0.000E+00  0.000E+00  0.000E+00  0.000E+00  0.000E+00
   8.350  0.000E+00  0.000E+00  0.000E+00  0.000E+00  0.000E+00  0.000E+00  0.000E+00  0.000E+00
   8.400  0.000E+00  0.000E+00  0.000E+00  0.000E+00  0.000E+00  0.000E+00  0.000E+00  0.000E+00
   8.450  0.000E+00  0.000E+00  0.000E+00  0.000E+00  0.000E+00  0.000E+00  0.000E+00  0.000E+00
   8.500  0.000E+00  0.000E+00  0.000E+00  0.000E+00  0.000E+00  0.000E+00  0.000E+00  0.000E+00
   8.550  0.000E+00  0.000E+00  0.000E+00  0.000E+00  0.000E+00  0.000E+00  0.000E+00  0.000E+00
   8.600  0.000E+00  0.000E+00  0.000E+00  0.000E+00  0.000E+00  0.000E+00  0.000E+00  0.000E+00
   8.650  0.000E+00  0.000E+00  0.000E+00  0.000E+00  0.000E+00  0.000E+00  0.000E+00  0.000E+00
   8.700  0.000E+00  0.000E+00  0.000E+00  0.000E+00  0.000E+00  0.000E+00  0.000E+00  0.000E+00
   8.750  0.000E+00  0.000E+00  0.000E+00  0.000E+00  0.000E+00  0.000E+00  0.000E+00  0.000E+00
   8.800  0.000E+00  0.000E+00  0.000E+00  0.000E+00  0.000E+00  0.000E+00  0.000E+00  0.000E+00
   8.850  0.000E+00  0.000E+00  0.000E+00  0.000E+00  0.000E+00  0.000E+00  0.000E+00  0.000E+00
   8.900  0.000E+00  0.000E+00  0.000E+00  0.000E+00  0.000E+00  0.000E+00  0.000E+00  0.000E+00
   8.950  0.000E+00  0.000E+00  0.000E+00  0.000E+00  0.000E+00  0.000E+00  0.000E+00  0.000E+00
   9.000  0.000E+00  0.000E+00  0.000E+00  0.000E+00  0.000E+00  0.000E+00  0.000E+00  0.000E+00
   9.050  0.000E+00  0.000E+00  0.000E+00  0.000E+00  0.000E+00  0.000E+00  0.000E+00  0.000E+00
   9.100  0.000E+00  0.000E+00  0.000E+00  0.000E+00  0.000E+00  0.000E+00  0.000E+00  0.000E+00
   9.150  0.000E+00  0.000E+00  0.000E+00  0.000E+00  0.000E+00  0.000E+00  0.000E+00  0.000E+00
   9.200  0.000E+00  0.000E+00  0.000E+00  0.000E+00  0.000E+00  0.000E+00  0.000E+00  0.000E+00
   9.250  0.000E+00  0.000E+00  0.000E+00  0.000E+00  0.000E+00  0.000E+00  0.000E+00  0.000E+00
   9.300  0.000E+00  0.000E+00  0.000E+00  0.000E+00  0.000E+00  0.000E+00  0.000E+00  0.000E+00
   9.350  0.000E+00  0.000E+00  0.000E+00  0.000E+00  0.000E+00  0.000E+00  0.000E+00  0.000E+00
   9.400 -0.193E-07  0.000E+00 -0.645E-08  0.000E+00 -0.645E-08  0.000E+00 -0.645E-08  0.000E+00
   9.450  0.367E-05  0.000E+00  0.122E-05  0.000E+00  0.122E-05  0.000E+00  0.122E-05  0.000E+00
   9.500  0.103E-04  0.000E+00  0.344E-05  0.000E+00  0.344E-05  0.000E+00  0.344E-05  0.000E+00
   9.550  0.206E-04 -0.203E-07  0.686E-05 -0.677E-08  0.686E-05 -0.677E-08  0.686E-05 -0.677E-08
   9.600  0.311E-04  0.198E-05  0.104E-04  0.661E-06  0.104E-04  0.661E-06  0.104E-04  0.661E-06
   9.650  0.423E-04  0.790E-05  0.141E-04  0.263E-05  0.141E-04  0.263E-05  0.141E-04  0.263E-05
   9.700  0.572E-04  0.175E-04  0.191E-04  0.582E-05  0.191E-04  0.582E-05  0.191E-04  0.582E-05
   9.750  0.745E-04  0.293E-04  0.248E-04  0.976E-05  0.248E-04  0.976E-05  0.248E-04  0.976E-05
   9.800  0.944E-04  0.394E-04  0.315E-04  0.131E-04  0.315E-04  0.131E-04  0.315E-04  0.131E-04
   9.850  0.113E-03  0.541E-04  0.376E-04  0.180E-04  0.376E-04  0.180E-04  0.376E-04  0.180E-04
   9.900  0.132E-03  0.713E-04  0.439E-04  0.238E-04  0.439E-04  0.238E-04  0.439E-04  0.238E-04
   9.950  0.152E-03  0.910E-04  0.507E-04  0.303E-04  0.507E-04  0.303E-04  0.507E-04  0.303E-04
  10.000  0.175E-03  0.111E-03  0.583E-04  0.371E-04  0.583E-04  0.371E-04  0.583E-04  0.371E-04
  10.050  0.200E-03  0.131E-03  0.666E-04  0.437E-04  0.666E-04  0.437E-04  0.666E-04  0.437E-04
  10.100  0.227E-03  0.151E-03  0.758E-04  0.504E-04  0.758E-04  0.504E-04  0.758E-04  0.504E-04
  10.150  0.257E-03  0.173E-03  0.858E-04  0.578E-04  0.858E-04  0.578E-04  0.858E-04  0.578E-04
  10.200  0.288E-03  0.198E-03  0.960E-04  0.661E-04  0.960E-04  0.661E-04  0.960E-04  0.661E-04
  10.250  0.314E-03  0.226E-03  0.105E-03  0.753E-04  0.105E-03  0.753E-04  0.105E-03  0.753E-04
  10.300  0.343E-03  0.256E-03  0.114E-03  0.853E-04  0.114E-03  0.853E-04  0.114E-03  0.853E-04
  10.350  0.373E-03  0.288E-03  0.124E-03  0.960E-04  0.124E-03  0.960E-04  0.124E-03  0.960E-04
  10.400  0.404E-03  0.315E-03  0.135E-03  0.105E-03  0.135E-03  0.105E-03  0.135E-03  0.105E-03
  10.450  0.439E-03  0.344E-03  0.146E-03  0.115E-03  0.146E-03  0.115E-03  0.146E-03  0.115E-03
  10.500  0.475E-03  0.375E-03  0.158E-03  0.125E-03  0.158E-03  0.125E-03  0.158E-03  0.125E-03
  10.550  0.513E-03  0.406E-03  0.171E-03  0.135E-03  0.171E-03  0.135E-03  0.171E-03  0.135E-03
  10.600  0.552E-03  0.439E-03  0.184E-03  0.146E-03  0.184E-03  0.146E-03  0.184E-03  0.146E-03
  10.650  0.593E-03  0.475E-03  0.198E-03  0.158E-03  0.198E-03  0.158E-03  0.198E-03  0.158E-03
  10.700  0.632E-03  0.513E-03  0.211E-03  0.171E-03  0.211E-03  0.171E-03  0.211E-03  0.171E-03
  10.750  0.670E-03  0.552E-03  0.223E-03  0.184E-03  0.223E-03  0.184E-03  0.223E-03  0.184E-03
  10.800  0.708E-03  0.592E-03  0.236E-03  0.197E-03  0.236E-03  0.197E-03  0.236E-03  0.197E-03
  10.850  0.751E-03  0.632E-03  0.250E-03  0.211E-03  0.250E-03  0.211E-03  0.250E-03  0.211E-03
  10.900  0.795E-03  0.672E-03  0.265E-03  0.224E-03  0.265E-03  0.224E-03  0.265E-03  0.224E-03
  10.950  0.840E-03  0.709E-03  0.280E-03  0.236E-03  0.280E-03  0.236E-03  0.280E-03  0.236E-03
  11.000  0.884E-03  0.749E-03  0.295E-03  0.250E-03  0.295E-03  0.250E-03  0.295E-03  0.250E-03
  11.050  0.932E-03  0.791E-03  0.311E-03  0.264E-03  0.311E-03  0.264E-03  0.311E-03  0.264E-03
  11.100  0.984E-03  0.834E-03  0.328E-03  0.278E-03  0.328E-03  0.278E-03  0.328E-03  0.278E-03
  11.150  0.103E-02  0.878E-03  0.344E-03  0.293E-03  0.344E-03  0.293E-03  0.344E-03  0.293E-03
  11.200  0.109E-02  0.922E-03  0.362E-03  0.307E-03  0.362E-03  0.307E-03  0.362E-03  0.307E-03
  11.250  0.114E-02  0.969E-03  0.380E-03  0.323E-03  0.380E-03  0.323E-03  0.380E-03  0.323E-03
  11.300  0.119E-02  0.102E-02  0.395E-03  0.339E-03  0.395E-03  0.339E-03  0.395E-03  0.339E-03
  11.350  0.124E-02  0.107E-02  0.413E-03  0.355E-03  0.413E-03  0.355E-03  0.413E-03  0.355E-03
  11.400  0.129E-02  0.112E-02  0.432E-03  0.372E-03  0.432E-03  0.372E-03  0.432E-03  0.372E-03
  11.450  0.135E-02  0.117E-02  0.450E-03  0.389E-03  0.450E-03  0.389E-03  0.450E-03  0.389E-03
  11.500  0.141E-02  0.121E-02  0.469E-03  0.405E-03  0.469E-03  0.405E-03  0.469E-03  0.405E-03
  11.550  0.147E-02  0.126E-02  0.489E-03  0.421E-03  0.489E-03  0.421E-03  0.489E-03  0.421E-03
  11.600  0.153E-02  0.131E-02  0.511E-03  0.437E-03  0.511E-03  0.437E-03  0.511E-03  0.437E-03
  11.650  0.159E-02  0.136E-02  0.531E-03  0.454E-03  0.531E-03  0.454E-03  0.531E-03  0.454E-03
  11.700  0.165E-02  0.141E-02  0.551E-03  0.471E-03  0.551E-03  0.471E-03  0.551E-03  0.471E-03
  11.750  0.171E-02  0.147E-02  0.571E-03  0.489E-03  0.571E-03  0.489E-03  0.571E-03  0.489E-03
  11.800  0.178E-02  0.152E-02  0.594E-03  0.508E-03  0.594E-03  0.508E-03  0.594E-03  0.508E-03
  11.850  0.186E-02  0.158E-02  0.618E-03  0.526E-03  0.618E-03  0.526E-03  0.618E-03  0.526E-03
  11.900  0.193E-02  0.163E-02  0.644E-03  0.544E-03  0.644E-03  0.544E-03  0.644E-03  0.544E-03
  11.950  0.200E-02  0.169E-02  0.668E-03  0.562E-03  0.668E-03  0.562E-03  0.668E-03  0.562E-03
  12.000  0.206E-02  0.174E-02  0.687E-03  0.579E-03  0.687E-03  0.579E-03  0.687E-03  0.579E-03
  12.050  0.214E-02  0.180E-02  0.712E-03  0.599E-03  0.712E-03  0.599E-03  0.712E-03  0.599E-03
  12.100  0.221E-02  0.186E-02  0.738E-03  0.619E-03  0.738E-03  0.619E-03  0.738E-03  0.619E-03
  12.150  0.230E-02  0.192E-02  0.766E-03  0.640E-03  0.766E-03  0.640E-03  0.766E-03  0.640E-03
  12.200  0.238E-02  0.198E-02  0.793E-03  0.659E-03  0.793E-03  0.659E-03  0.793E-03  0.659E-03
  12.250  0.246E-02  0.203E-02  0.821E-03  0.677E-03  0.821E-03  0.677E-03  0.821E-03  0.677E-03
  12.300  0.255E-02  0.209E-02  0.850E-03  0.696E-03  0.850E-03  0.696E-03  0.850E-03  0.696E-03
  12.350  0.263E-02  0.214E-02  0.878E-03  0.714E-03  0.878E-03  0.714E-03  0.878E-03  0.714E-03
  12.400  0.272E-02  0.220E-02  0.906E-03  0.735E-03  0.906E-03  0.735E-03  0.906E-03  0.735E-03
  12.450  0.282E-02  0.227E-02  0.941E-03  0.756E-03  0.941E-03  0.756E-03  0.941E-03  0.756E-03
  12.500  0.294E-02  0.233E-02  0.979E-03  0.776E-03  0.979E-03  0.776E-03  0.979E-03  0.776E-03
  12.550  0.305E-02  0.239E-02  0.102E-02  0.795E-03  0.102E-02  0.795E-03  0.102E-02  0.795E-03
  12.600  0.314E-02  0.245E-02  0.105E-02  0.816E-03  0.105E-02  0.816E-03  0.105E-02  0.816E-03
  12.650  0.325E-02  0.251E-02  0.108E-02  0.836E-03  0.108E-02  0.836E-03  0.108E-02  0.836E-03
  12.700  0.337E-02  0.257E-02  0.112E-02  0.856E-03  0.112E-02  0.856E-03  0.112E-02  0.856E-03
  12.750  0.349E-02  0.263E-02  0.116E-02  0.877E-03  0.116E-02  0.877E-03  0.116E-02  0.877E-03
  12.800  0.368E-02  0.269E-02  0.123E-02  0.897E-03  0.123E-02  0.897E-03  0.123E-02  0.897E-03
  12.850  0.384E-02  0.276E-02  0.128E-02  0.918E-03  0.128E-02  0.918E-03  0.128E-02  0.918E-03
  12.900  0.402E-02  0.282E-02  0.134E-02  0.941E-03  0.134E-02  0.941E-03  0.134E-02  0.941E-03
  12.950  0.423E-02  0.288E-02  0.141E-02  0.962E-03  0.141E-02  0.962E-03  0.141E-02  0.962E-03
  13.000  0.421E-02  0.294E-02  0.140E-02  0.979E-03  0.140E-02  0.979E-03  0.140E-02  0.979E-03
  13.050  0.416E-02  0.300E-02  0.139E-02  0.100E-02  0.139E-02  0.100E-02  0.139E-02  0.100E-02
  13.100  0.412E-02  0.306E-02  0.137E-02  0.102E-02  0.137E-02  0.102E-02  0.137E-02  0.102E-02
  13.150  0.408E-02  0.311E-02  0.136E-02  0.104E-02  0.136E-02  0.104E-02  0.136E-02  0.104E-02
  13.200  0.403E-02  0.318E-02  0.134E-02  0.106E-02  0.134E-02  0.106E-02  0.134E-02  0.106E-02
  13.250  0.405E-02  0.324E-02  0.135E-02  0.108E-02  0.135E-02  0.108E-02  0.135E-02  0.108E-02
  13.300  0.405E-02  0.330E-02  0.135E-02  0.110E-02  0.135E-02  0.110E-02  0.135E-02  0.110E-02
  13.350  0.406E-02  0.336E-02  0.135E-02  0.112E-02  0.135E-02  0.112E-02  0.135E-02  0.112E-02
  13.400  0.401E-02  0.342E-02  0.134E-02  0.114E-02  0.134E-02  0.114E-02  0.134E-02  0.114E-02
  13.450  0.399E-02  0.347E-02  0.133E-02  0.116E-02  0.133E-02  0.116E-02  0.133E-02  0.116E-02
  13.500  0.401E-02  0.353E-02  0.134E-02  0.118E-02  0.134E-02  0.118E-02  0.134E-02  0.118E-02
  13.550  0.412E-02  0.358E-02  0.137E-02  0.119E-02  0.137E-02  0.119E-02  0.137E-02  0.119E-02
  13.600  0.429E-02  0.364E-02  0.143E-02  0.121E-02  0.143E-02  0.121E-02  0.143E-02  0.121E-02
  13.650  0.487E-02  0.371E-02  0.162E-02  0.124E-02  0.162E-02  0.124E-02  0.162E-02  0.124E-02
  13.700  0.527E-02  0.375E-02  0.176E-02  0.125E-02  0.176E-02  0.125E-02  0.176E-02  0.125E-02
  13.750  0.361E-02  0.379E-02  0.120E-02  0.126E-02  0.120E-02  0.126E-02  0.120E-02  0.126E-02
  13.800  0.279E-02  0.382E-02  0.931E-03  0.127E-02  0.931E-03  0.127E-02  0.931E-03  0.127E-02
  13.850  0.227E-02  0.388E-02  0.757E-03  0.129E-02  0.757E-03  0.129E-02  0.757E-03  0.129E-02
  13.900  0.195E-02  0.391E-02  0.649E-03  0.130E-02  0.649E-03  0.130E-02  0.649E-03  0.130E-02
  13.950  0.168E-02  0.395E-02  0.561E-03  0.132E-02  0.561E-03  0.132E-02  0.561E-03  0.132E-02
  14.000  0.139E-02  0.401E-02  0.464E-03  0.134E-02  0.464E-03  0.134E-02  0.464E-03  0.134E-02
  14.050  0.123E-02  0.405E-02  0.410E-03  0.135E-02  0.410E-03  0.135E-02  0.410E-03  0.135E-02
  14.100  0.108E-02  0.401E-02  0.360E-03  0.134E-02  0.360E-03  0.134E-02  0.360E-03  0.134E-02
  14.150  0.930E-03  0.402E-02  0.310E-03  0.134E-02  0.310E-03  0.134E-02  0.310E-03  0.134E-02
  14.200  0.822E-03  0.402E-02  0.274E-03  0.134E-02  0.274E-03  0.134E-02  0.274E-03  0.134E-02
  14.250  0.779E-03  0.399E-02  0.260E-03  0.133E-02  0.260E-03  0.133E-02  0.260E-03  0.133E-02
  14.300  0.747E-03  0.390E-02  0.249E-03  0.130E-02  0.249E-03  0.130E-02  0.249E-03  0.130E-02
  14.350  0.696E-03  0.381E-02  0.232E-03  0.127E-02  0.232E-03  0.127E-02  0.232E-03  0.127E-02
  14.400  0.111E-02  0.373E-02  0.371E-03  0.124E-02  0.371E-03  0.124E-02  0.371E-03  0.124E-02
  14.450  0.216E-02  0.368E-02  0.722E-03  0.123E-02  0.722E-03  0.123E-02  0.722E-03  0.123E-02
  14.500  0.440E-02  0.360E-02  0.147E-02  0.120E-02  0.147E-02  0.120E-02  0.147E-02  0.120E-02
  14.550  0.496E-02  0.351E-02  0.165E-02  0.117E-02  0.165E-02  0.117E-02  0.165E-02  0.117E-02
  14.600  0.467E-02  0.344E-02  0.156E-02  0.115E-02  0.156E-02  0.115E-02  0.156E-02  0.115E-02
  14.650  0.432E-02  0.336E-02  0.144E-02  0.112E-02  0.144E-02  0.112E-02  0.144E-02  0.112E-02
  14.700  0.406E-02  0.325E-02  0.135E-02  0.108E-02  0.135E-02  0.108E-02  0.135E-02  0.108E-02
  14.750  0.407E-02  0.317E-02  0.136E-02  0.106E-02  0.136E-02  0.106E-02  0.136E-02  0.106E-02
  14.800  0.412E-02  0.309E-02  0.137E-02  0.103E-02  0.137E-02  0.103E-02  0.137E-02  0.103E-02
  14.850  0.427E-02  0.300E-02  0.142E-02  0.999E-03  0.142E-02  0.999E-03  0.142E-02  0.999E-03
  14.900  0.449E-02  0.293E-02  0.150E-02  0.976E-03  0.150E-02  0.976E-03  0.150E-02  0.976E-03
  14.950  0.461E-02  0.286E-02  0.154E-02  0.954E-03  0.154E-02  0.954E-03  0.154E-02  0.954E-03
  15.000  0.463E-02  0.279E-02  0.154E-02  0.931E-03  0.154E-02  0.931E-03  0.154E-02  0.931E-03
  15.050  0.471E-02  0.277E-02  0.157E-02  0.923E-03  0.157E-02  0.923E-03  0.157E-02  0.923E-03
  15.100  0.499E-02  0.275E-02  0.166E-02  0.917E-03  0.166E-02  0.917E-03  0.166E-02  0.917E-03
  15.150  0.502E-02  0.284E-02  0.167E-02  0.948E-03  0.167E-02  0.948E-03  0.167E-02  0.948E-03
  15.200  0.532E-02  0.274E-02  0.177E-02  0.913E-03  0.177E-02  0.913E-03  0.177E-02  0.913E-03
  15.250  0.589E-02  0.253E-02  0.196E-02  0.844E-03  0.196E-02  0.844E-03  0.196E-02  0.844E-03
  15.300  0.499E-02  0.232E-02  0.166E-02  0.774E-03  0.166E-02  0.774E-03  0.166E-02  0.774E-03
  15.350  0.445E-02  0.211E-02  0.148E-02  0.702E-03  0.148E-02  0.702E-03  0.148E-02  0.702E-03
  15.400  0.380E-02  0.189E-02  0.127E-02  0.630E-03  0.127E-02  0.630E-03  0.127E-02  0.630E-03
  15.450  0.347E-02  0.156E-02  0.116E-02  0.520E-03  0.116E-02  0.520E-03  0.116E-02  0.520E-03
  15.500  0.292E-02  0.135E-02  0.973E-03  0.450E-03  0.973E-03  0.450E-03  0.973E-03  0.450E-03
  15.550  0.259E-02  0.119E-02  0.865E-03  0.398E-03  0.865E-03  0.398E-03  0.865E-03  0.398E-03
  15.600  0.239E-02  0.105E-02  0.797E-03  0.349E-03  0.797E-03  0.349E-03  0.797E-03  0.349E-03
  15.650  0.222E-02  0.932E-03  0.740E-03  0.311E-03  0.740E-03  0.311E-03  0.740E-03  0.311E-03
  15.700  0.207E-02  0.781E-03  0.690E-03  0.260E-03  0.690E-03  0.260E-03  0.690E-03  0.260E-03
  15.750  0.195E-02  0.690E-03  0.650E-03  0.230E-03  0.650E-03  0.230E-03  0.650E-03  0.230E-03
  15.800  0.184E-02  0.623E-03  0.612E-03  0.208E-03  0.612E-03  0.208E-03  0.612E-03  0.208E-03
  15.850  0.174E-02  0.675E-03  0.578E-03  0.225E-03  0.578E-03  0.225E-03  0.578E-03  0.225E-03
  15.900  0.163E-02  0.496E-03  0.543E-03  0.165E-03  0.543E-03  0.165E-03  0.543E-03  0.165E-03
  15.950  0.153E-02  0.456E-03  0.510E-03  0.152E-03  0.510E-03  0.152E-03  0.510E-03  0.152E-03
  16.000  0.147E-02  0.162E-02  0.491E-03  0.540E-03  0.491E-03  0.540E-03  0.491E-03  0.540E-03
  16.050  0.138E-02  0.171E-02  0.458E-03  0.569E-03  0.458E-03  0.569E-03  0.458E-03  0.569E-03
  16.100  0.129E-02  0.280E-02  0.431E-03  0.934E-03  0.431E-03  0.934E-03  0.431E-03  0.934E-03
  16.150  0.123E-02  0.435E-02  0.411E-03  0.145E-02  0.411E-03  0.145E-02  0.411E-03  0.145E-02
  16.200  0.118E-02  0.523E-02  0.394E-03  0.174E-02  0.394E-03  0.174E-02  0.394E-03  0.174E-02
  16.250  0.116E-02  0.575E-02  0.387E-03  0.192E-02  0.387E-03  0.192E-02  0.387E-03  0.192E-02
  16.300  0.114E-02  0.609E-02  0.379E-03  0.203E-02  0.379E-03  0.203E-02  0.379E-03  0.203E-02
  16.350  0.114E-02  0.655E-02  0.381E-03  0.218E-02  0.381E-03  0.218E-02  0.381E-03  0.218E-02
  16.400  0.123E-02  0.665E-02  0.409E-03  0.222E-02  0.409E-03  0.222E-02  0.409E-03  0.222E-02
  16.450  0.120E-02  0.662E-02  0.401E-03  0.221E-02  0.401E-03  0.221E-02  0.401E-03  0.221E-02
  16.500  0.121E-02  0.660E-02  0.405E-03  0.220E-02  0.405E-03  0.220E-02  0.405E-03  0.220E-02
  16.550  0.122E-02  0.639E-02  0.406E-03  0.213E-02  0.406E-03  0.213E-02  0.406E-03  0.213E-02
  16.600  0.119E-02  0.613E-02  0.396E-03  0.204E-02  0.396E-03  0.204E-02  0.396E-03  0.204E-02
  16.650  0.117E-02  0.592E-02  0.390E-03  0.197E-02  0.390E-03  0.197E-02  0.390E-03  0.197E-02
  16.700  0.113E-02  0.568E-02  0.376E-03  0.189E-02  0.376E-03  0.189E-02  0.376E-03  0.189E-02
  16.750  0.113E-02  0.533E-02  0.377E-03  0.178E-02  0.377E-03  0.178E-02  0.377E-03  0.178E-02
  16.800  0.107E-02  0.505E-02  0.355E-03  0.168E-02  0.355E-03  0.168E-02  0.355E-03  0.168E-02
  16.850  0.988E-03  0.504E-02  0.329E-03  0.168E-02  0.329E-03  0.168E-02  0.329E-03  0.168E-02
  16.900  0.128E-02  0.524E-02  0.428E-03  0.175E-02  0.428E-03  0.175E-02  0.428E-03  0.175E-02
  16.950  0.116E-02  0.590E-02  0.388E-03  0.197E-02  0.388E-03  0.197E-02  0.388E-03  0.197E-02
  17.000  0.108E-02  0.592E-02  0.361E-03  0.197E-02  0.361E-03  0.197E-02  0.361E-03  0.197E-02
  17.050  0.110E-02  0.540E-02  0.366E-03  0.180E-02  0.366E-03  0.180E-02  0.366E-03  0.180E-02
  17.100  0.116E-02  0.515E-02  0.388E-03  0.172E-02  0.388E-03  0.172E-02  0.388E-03  0.172E-02
  17.150  0.120E-02  0.440E-02  0.399E-03  0.147E-02  0.399E-03  0.147E-02  0.399E-03  0.147E-02
  17.200  0.121E-02  0.373E-02  0.404E-03  0.124E-02  0.404E-03  0.124E-02  0.404E-03  0.124E-02
  17.250  0.121E-02  0.327E-02  0.403E-03  0.109E-02  0.403E-03  0.109E-02  0.403E-03  0.109E-02
  17.300  0.119E-02  0.290E-02  0.398E-03  0.967E-03  0.398E-03  0.967E-03  0.398E-03  0.967E-03
  17.350  0.116E-02  0.261E-02  0.388E-03  0.869E-03  0.388E-03  0.869E-03  0.388E-03  0.869E-03
  17.400  0.114E-02  0.237E-02  0.382E-03  0.789E-03  0.382E-03  0.789E-03  0.382E-03  0.789E-03
  17.450  0.114E-02  0.213E-02  0.380E-03  0.712E-03  0.380E-03  0.712E-03  0.380E-03  0.712E-03
  17.500  0.112E-02  0.191E-02  0.374E-03  0.636E-03  0.374E-03  0.636E-03  0.374E-03  0.636E-03
  17.550  0.109E-02  0.168E-02  0.365E-03  0.560E-03  0.365E-03  0.560E-03  0.365E-03  0.560E-03
  17.600  0.105E-02  0.156E-02  0.350E-03  0.521E-03  0.350E-03  0.521E-03  0.350E-03  0.521E-03
  17.650  0.981E-03  0.142E-02  0.327E-03  0.474E-03  0.327E-03  0.474E-03  0.327E-03  0.474E-03
  17.700  0.915E-03  0.129E-02  0.305E-03  0.430E-03  0.305E-03  0.430E-03  0.305E-03  0.430E-03
  17.750  0.828E-03  0.117E-02  0.276E-03  0.390E-03  0.276E-03  0.390E-03  0.276E-03  0.390E-03
  17.800  0.762E-03  0.107E-02  0.254E-03  0.355E-03  0.254E-03  0.355E-03  0.254E-03  0.355E-03
  17.850  0.702E-03  0.987E-03  0.234E-03  0.329E-03  0.234E-03  0.329E-03  0.234E-03  0.329E-03
  17.900  0.638E-03  0.924E-03  0.213E-03  0.308E-03  0.213E-03  0.308E-03  0.213E-03  0.308E-03
  17.950  0.591E-03  0.865E-03  0.197E-03  0.288E-03  0.197E-03  0.288E-03  0.197E-03  0.288E-03
  18.000  0.554E-03  0.768E-03  0.185E-03  0.256E-03  0.185E-03  0.256E-03  0.185E-03  0.256E-03
  18.050  0.520E-03  0.675E-03  0.173E-03  0.225E-03  0.173E-03  0.225E-03  0.173E-03  0.225E-03
  18.100  0.499E-03  0.606E-03  0.166E-03  0.202E-03  0.166E-03  0.202E-03  0.166E-03  0.202E-03
  18.150  0.511E-03  0.546E-03  0.170E-03  0.182E-03  0.170E-03  0.182E-03  0.170E-03  0.182E-03
  18.200  0.549E-03  0.475E-03  0.183E-03  0.158E-03  0.183E-03  0.158E-03  0.183E-03  0.158E-03
  18.250  0.596E-03  0.396E-03  0.199E-03  0.132E-03  0.199E-03  0.132E-03  0.199E-03  0.132E-03
  18.300  0.640E-03  0.276E-03  0.213E-03  0.920E-04  0.213E-03  0.920E-04  0.213E-03  0.920E-04
  18.350  0.664E-03  0.218E-03  0.221E-03  0.726E-04  0.221E-03  0.726E-04  0.221E-03  0.726E-04
  18.400  0.680E-03  0.241E-03  0.227E-03  0.805E-04  0.227E-03  0.805E-04  0.227E-03  0.805E-04
  18.450  0.693E-03  0.258E-03  0.231E-03  0.861E-04  0.231E-03  0.861E-04  0.231E-03  0.861E-04
  18.500  0.703E-03  0.285E-03  0.234E-03  0.950E-04  0.234E-03  0.950E-04  0.234E-03  0.950E-04
  18.550  0.708E-03  0.334E-03  0.236E-03  0.111E-03  0.236E-03  0.111E-03  0.236E-03  0.111E-03
  18.600  0.715E-03  0.378E-03  0.238E-03  0.126E-03  0.238E-03  0.126E-03  0.238E-03  0.126E-03
  18.650  0.719E-03  0.393E-03  0.240E-03  0.131E-03  0.240E-03  0.131E-03  0.240E-03  0.131E-03
  18.700  0.719E-03  0.396E-03  0.240E-03  0.132E-03  0.240E-03  0.132E-03  0.240E-03  0.132E-03
  18.750  0.718E-03  0.413E-03  0.239E-03  0.138E-03  0.239E-03  0.138E-03  0.239E-03  0.138E-03
  18.800  0.718E-03  0.428E-03  0.239E-03  0.143E-03  0.239E-03  0.143E-03  0.239E-03  0.143E-03
  18.850  0.721E-03  0.436E-03  0.240E-03  0.145E-03  0.240E-03  0.145E-03  0.240E-03  0.145E-03
  18.900  0.724E-03  0.449E-03  0.241E-03  0.150E-03  0.241E-03  0.150E-03  0.241E-03  0.150E-03
  18.950  0.724E-03  0.454E-03  0.241E-03  0.151E-03  0.241E-03  0.151E-03  0.241E-03  0.151E-03
  19.000  0.720E-03  0.460E-03  0.240E-03  0.153E-03  0.240E-03  0.153E-03  0.240E-03  0.153E-03
  19.050  0.713E-03  0.470E-03  0.238E-03  0.157E-03  0.238E-03  0.157E-03  0.238E-03  0.157E-03
  19.100  0.708E-03  0.476E-03  0.236E-03  0.159E-03  0.236E-03  0.159E-03  0.236E-03  0.159E-03
  19.150  0.701E-03  0.491E-03  0.234E-03  0.164E-03  0.234E-03  0.164E-03  0.234E-03  0.164E-03
  19.200  0.694E-03  0.501E-03  0.231E-03  0.167E-03  0.231E-03  0.167E-03  0.231E-03  0.167E-03
  19.250  0.686E-03  0.540E-03  0.229E-03  0.180E-03  0.229E-03  0.180E-03  0.229E-03  0.180E-03
  19.300  0.676E-03  0.556E-03  0.225E-03  0.185E-03  0.225E-03  0.185E-03  0.225E-03  0.185E-03
  19.350  0.665E-03  0.507E-03  0.222E-03  0.169E-03  0.222E-03  0.169E-03  0.222E-03  0.169E-03
  19.400  0.655E-03  0.439E-03  0.218E-03  0.146E-03  0.218E-03  0.146E-03  0.218E-03  0.146E-03
  19.450  0.647E-03  0.372E-03  0.216E-03  0.124E-03  0.216E-03  0.124E-03  0.216E-03  0.124E-03
  19.500  0.637E-03  0.300E-03  0.212E-03  0.999E-04  0.212E-03  0.999E-04  0.212E-03  0.999E-04
  19.550  0.627E-03  0.251E-03  0.209E-03  0.838E-04  0.209E-03  0.838E-04  0.209E-03  0.838E-04
  19.600  0.617E-03  0.268E-03  0.206E-03  0.893E-04  0.206E-03  0.893E-04  0.206E-03  0.893E-04
  19.650  0.606E-03  0.351E-03  0.202E-03  0.117E-03  0.202E-03  0.117E-03  0.202E-03  0.117E-03
  19.700  0.594E-03  0.435E-03  0.198E-03  0.145E-03  0.198E-03  0.145E-03  0.198E-03  0.145E-03
  19.750  0.582E-03  0.487E-03  0.194E-03  0.162E-03  0.194E-03  0.162E-03  0.194E-03  0.162E-03
  19.800  0.568E-03  0.849E-03  0.189E-03  0.283E-03  0.189E-03  0.283E-03  0.189E-03  0.283E-03
  19.850  0.556E-03  0.649E-03  0.185E-03  0.216E-03  0.185E-03  0.216E-03  0.185E-03  0.216E-03
  19.900  0.546E-03  0.584E-03  0.182E-03  0.195E-03  0.182E-03  0.195E-03  0.182E-03  0.195E-03
  19.950  0.534E-03  0.536E-03  0.178E-03  0.179E-03  0.178E-03  0.179E-03  0.178E-03  0.179E-03
  20.000  0.521E-03  0.485E-03  0.174E-03  0.162E-03  0.174E-03  0.162E-03  0.174E-03  0.162E-03
  20.050  0.509E-03  0.446E-03  0.170E-03  0.149E-03  0.170E-03  0.149E-03  0.170E-03  0.149E-03
  20.100  0.495E-03  0.416E-03  0.165E-03  0.139E-03  0.165E-03  0.139E-03  0.165E-03  0.139E-03
  20.150  0.484E-03  0.394E-03  0.161E-03  0.131E-03  0.161E-03  0.131E-03  0.161E-03  0.131E-03
  20.200  0.470E-03  0.371E-03  0.157E-03  0.124E-03  0.157E-03  0.124E-03  0.157E-03  0.124E-03
  20.250  0.456E-03  0.356E-03  0.152E-03  0.119E-03  0.152E-03  0.119E-03  0.152E-03  0.119E-03
  20.300  0.442E-03  0.345E-03  0.147E-03  0.115E-03  0.147E-03  0.115E-03  0.147E-03  0.115E-03
  20.350  0.430E-03  0.342E-03  0.143E-03  0.114E-03  0.143E-03  0.114E-03  0.143E-03  0.114E-03
  20.400  0.417E-03  0.339E-03  0.139E-03  0.113E-03  0.139E-03  0.113E-03  0.139E-03  0.113E-03
  20.450  0.404E-03  0.353E-03  0.135E-03  0.118E-03  0.135E-03  0.118E-03  0.135E-03  0.118E-03
  20.500  0.392E-03  0.364E-03  0.131E-03  0.121E-03  0.131E-03  0.121E-03  0.131E-03  0.121E-03
  20.550  0.379E-03  0.380E-03  0.126E-03  0.127E-03  0.126E-03  0.127E-03  0.126E-03  0.127E-03
  20.600  0.367E-03  0.385E-03  0.122E-03  0.128E-03  0.122E-03  0.128E-03  0.122E-03  0.128E-03
  20.650  0.355E-03  0.388E-03  0.118E-03  0.129E-03  0.118E-03  0.129E-03  0.118E-03  0.129E-03
  20.700  0.344E-03  0.393E-03  0.115E-03  0.131E-03  0.115E-03  0.131E-03  0.115E-03  0.131E-03
  20.750  0.332E-03  0.399E-03  0.111E-03  0.133E-03  0.111E-03  0.133E-03  0.111E-03  0.133E-03
  20.800  0.321E-03  0.403E-03  0.107E-03  0.134E-03  0.107E-03  0.134E-03  0.107E-03  0.134E-03
  20.850  0.310E-03  0.405E-03  0.103E-03  0.135E-03  0.103E-03  0.135E-03  0.103E-03  0.135E-03
  20.900  0.300E-03  0.405E-03  0.100E-03  0.135E-03  0.100E-03  0.135E-03  0.100E-03  0.135E-03
  20.950  0.289E-03  0.404E-03  0.963E-04  0.135E-03  0.963E-04  0.135E-03  0.963E-04  0.135E-03
  21.000  0.279E-03  0.404E-03  0.929E-04  0.135E-03  0.929E-04  0.135E-03  0.929E-04  0.135E-03
  21.050  0.268E-03  0.403E-03  0.894E-04  0.134E-03  0.894E-04  0.134E-03  0.894E-04  0.134E-03
  21.100  0.258E-03  0.401E-03  0.859E-04  0.134E-03  0.859E-04  0.134E-03  0.859E-04  0.134E-03
  21.150  0.247E-03  0.397E-03  0.823E-04  0.132E-03  0.823E-04  0.132E-03  0.823E-04  0.132E-03
  21.200  0.237E-03  0.391E-03  0.789E-04  0.130E-03  0.789E-04  0.130E-03  0.789E-04  0.130E-03
  21.250  0.228E-03  0.386E-03  0.759E-04  0.129E-03  0.759E-04  0.129E-03  0.759E-04  0.129E-03
  21.300  0.219E-03  0.381E-03  0.729E-04  0.127E-03  0.729E-04  0.127E-03  0.729E-04  0.127E-03
  21.350  0.209E-03  0.375E-03  0.695E-04  0.125E-03  0.695E-04  0.125E-03  0.695E-04  0.125E-03
  21.400  0.199E-03  0.369E-03  0.663E-04  0.123E-03  0.663E-04  0.123E-03  0.663E-04  0.123E-03
  21.450  0.189E-03  0.363E-03  0.630E-04  0.121E-03  0.630E-04  0.121E-03  0.630E-04  0.121E-03
  21.500  0.181E-03  0.356E-03  0.603E-04  0.119E-03  0.603E-04  0.119E-03  0.603E-04  0.119E-03
  21.550  0.172E-03  0.349E-03  0.574E-04  0.116E-03  0.574E-04  0.116E-03  0.574E-04  0.116E-03
  21.600  0.165E-03  0.341E-03  0.548E-04  0.114E-03  0.548E-04  0.114E-03  0.548E-04  0.114E-03
  21.650  0.157E-03  0.333E-03  0.522E-04  0.111E-03  0.522E-04  0.111E-03  0.522E-04  0.111E-03
  21.700  0.149E-03  0.325E-03  0.496E-04  0.108E-03  0.496E-04  0.108E-03  0.496E-04  0.108E-03
  21.750  0.141E-03  0.318E-03  0.471E-04  0.106E-03  0.471E-04  0.106E-03  0.471E-04  0.106E-03
  21.800  0.134E-03  0.309E-03  0.447E-04  0.103E-03  0.447E-04  0.103E-03  0.447E-04  0.103E-03
  21.850  0.127E-03  0.300E-03  0.425E-04  0.100E-03  0.425E-04  0.100E-03  0.425E-04  0.100E-03
  21.900  0.121E-03  0.290E-03  0.404E-04  0.967E-04  0.404E-04  0.967E-04  0.404E-04  0.967E-04
  21.950  0.115E-03  0.282E-03  0.384E-04  0.940E-04  0.384E-04  0.940E-04  0.384E-04  0.940E-04
  22.000  0.109E-03  0.271E-03  0.364E-04  0.903E-04  0.364E-04  0.903E-04  0.364E-04  0.903E-04
  22.050  0.103E-03  0.261E-03  0.345E-04  0.871E-04  0.345E-04  0.871E-04  0.345E-04  0.871E-04
  22.100  0.978E-04  0.253E-03  0.326E-04  0.842E-04  0.326E-04  0.842E-04  0.326E-04  0.842E-04
  22.150  0.922E-04  0.244E-03  0.307E-04  0.812E-04  0.307E-04  0.812E-04  0.307E-04  0.812E-04
  22.200  0.867E-04  0.235E-03  0.289E-04  0.783E-04  0.289E-04  0.783E-04  0.289E-04  0.783E-04
  22.250  0.817E-04  0.227E-03  0.272E-04  0.755E-04  0.272E-04  0.755E-04  0.272E-04  0.755E-04
  22.300  0.767E-04  0.218E-03  0.256E-04  0.725E-04  0.256E-04  0.725E-04  0.256E-04  0.725E-04
  22.350  0.719E-04  0.209E-03  0.240E-04  0.697E-04  0.240E-04  0.697E-04  0.240E-04  0.697E-04
  22.400  0.674E-04  0.200E-03  0.225E-04  0.668E-04  0.225E-04  0.668E-04  0.225E-04  0.668E-04
  22.450  0.634E-04  0.192E-03  0.211E-04  0.640E-04  0.211E-04  0.640E-04  0.211E-04  0.640E-04
  22.500  0.591E-04  0.184E-03  0.197E-04  0.612E-04  0.197E-04  0.612E-04  0.197E-04  0.612E-04
  22.550  0.553E-04  0.175E-03  0.184E-04  0.585E-04  0.184E-04  0.585E-04  0.184E-04  0.585E-04
  22.600  0.518E-04  0.168E-03  0.173E-04  0.559E-04  0.173E-04  0.559E-04  0.173E-04  0.559E-04
  22.650  0.480E-04  0.160E-03  0.160E-04  0.535E-04  0.160E-04  0.535E-04  0.160E-04  0.535E-04
  22.700  0.438E-04  0.153E-03  0.146E-04  0.510E-04  0.146E-04  0.510E-04  0.146E-04  0.510E-04
  22.750  0.409E-04  0.145E-03  0.136E-04  0.485E-04  0.136E-04  0.485E-04  0.136E-04  0.485E-04
  22.800  0.380E-04  0.138E-03  0.127E-04  0.460E-04  0.127E-04  0.460E-04  0.127E-04  0.460E-04
  22.850  0.353E-04  0.131E-03  0.118E-04  0.436E-04  0.118E-04  0.436E-04  0.118E-04  0.436E-04
  22.900  0.329E-04  0.123E-03  0.110E-04  0.410E-04  0.110E-04  0.410E-04  0.110E-04  0.410E-04
  22.950  0.304E-04  0.116E-03  0.101E-04  0.387E-04  0.101E-04  0.387E-04  0.101E-04  0.387E-04
  23.000  0.280E-04  0.110E-03  0.932E-05  0.366E-04  0.932E-05  0.366E-04  0.932E-05  0.366E-04
  23.050  0.257E-04  0.104E-03  0.856E-05  0.346E-04  0.856E-05  0.346E-04  0.856E-05  0.346E-04
  23.100  0.236E-04  0.980E-04  0.787E-05  0.327E-04  0.787E-05  0.327E-04  0.787E-05  0.327E-04
  23.150  0.218E-04  0.923E-04  0.726E-05  0.308E-04  0.726E-05  0.308E-04  0.726E-05  0.308E-04
  23.200  0.201E-04  0.870E-04  0.669E-05  0.290E-04  0.669E-05  0.290E-04  0.669E-05  0.290E-04
  23.250  0.185E-04  0.819E-04  0.616E-05  0.273E-04  0.616E-05  0.273E-04  0.616E-05  0.273E-04
  23.300  0.168E-04  0.769E-04  0.561E-05  0.256E-04  0.561E-05  0.256E-04  0.561E-05  0.256E-04
  23.350  0.152E-04  0.721E-04  0.508E-05  0.240E-04  0.508E-05  0.240E-04  0.508E-05  0.240E-04
  23.400  0.137E-04  0.676E-04  0.458E-05  0.225E-04  0.458E-05  0.225E-04  0.458E-05  0.225E-04
  23.450  0.124E-04  0.632E-04  0.413E-05  0.211E-04  0.413E-05  0.211E-04  0.413E-05  0.211E-04
  23.500  0.111E-04  0.589E-04  0.370E-05  0.196E-04  0.370E-05  0.196E-04  0.370E-05  0.196E-04
  23.550  0.994E-05  0.547E-04  0.331E-05  0.182E-04  0.331E-05  0.182E-04  0.331E-05  0.182E-04
  23.600  0.890E-05  0.508E-04  0.297E-05  0.169E-04  0.297E-05  0.169E-04  0.297E-05  0.169E-04
  23.650  0.789E-05  0.472E-04  0.263E-05  0.157E-04  0.263E-05  0.157E-04  0.263E-05  0.157E-04
  23.700  0.692E-05  0.436E-04  0.231E-05  0.145E-04  0.231E-05  0.145E-04  0.231E-05  0.145E-04
  23.750  0.613E-05  0.404E-04  0.204E-05  0.135E-04  0.204E-05  0.135E-04  0.204E-05  0.135E-04
  23.800  0.532E-05  0.374E-04  0.177E-05  0.125E-04  0.177E-05  0.125E-04  0.177E-05  0.125E-04
  23.850  0.454E-05  0.344E-04  0.151E-05  0.115E-04  0.151E-05  0.115E-04  0.151E-05  0.115E-04
  23.900  0.392E-05  0.314E-04  0.131E-05  0.105E-04  0.131E-05  0.105E-04  0.131E-05  0.105E-04
  23.950  0.336E-05  0.287E-04  0.112E-05  0.955E-05  0.112E-05  0.955E-05  0.112E-05  0.955E-05
  24.000  0.286E-05  0.262E-04  0.954E-06  0.872E-05  0.954E-06  0.872E-05  0.954E-06  0.872E-05
  24.050  0.244E-05  0.240E-04  0.812E-06  0.799E-05  0.812E-06  0.799E-05  0.812E-06  0.799E-05
  24.100  0.211E-05  0.220E-04  0.705E-06  0.734E-05  0.705E-06  0.734E-05  0.705E-06  0.734E-05
  24.150  0.172E-05  0.201E-04  0.574E-06  0.669E-05  0.574E-06  0.669E-05  0.574E-06  0.669E-05
  24.200  0.142E-05  0.183E-04  0.472E-06  0.611E-05  0.472E-06  0.611E-05  0.472E-06  0.611E-05
  24.250  0.125E-05  0.165E-04  0.415E-06  0.551E-05  0.415E-06  0.551E-05  0.415E-06  0.551E-05
  24.300  0.114E-05  0.150E-04  0.381E-06  0.499E-05  0.381E-06  0.499E-05  0.381E-06  0.499E-05
  24.350  0.111E-05  0.136E-04  0.371E-06  0.452E-05  0.371E-06  0.452E-05  0.371E-06  0.452E-05
  24.400  0.103E-05  0.123E-04  0.343E-06  0.410E-05  0.343E-06  0.410E-05  0.343E-06  0.410E-05
  24.450  0.936E-06  0.111E-04  0.312E-06  0.371E-05  0.312E-06  0.371E-05  0.312E-06  0.371E-05
  24.500  0.861E-06  0.998E-05  0.287E-06  0.333E-05  0.287E-06  0.333E-05  0.287E-06  0.333E-05
  24.550  0.804E-06  0.886E-05  0.268E-06  0.295E-05  0.268E-06  0.295E-05  0.268E-06  0.295E-05
  24.600  0.762E-06  0.785E-05  0.254E-06  0.262E-05  0.254E-06  0.262E-05  0.254E-06  0.262E-05
  24.650  0.726E-06  0.698E-05  0.242E-06  0.233E-05  0.242E-06  0.233E-05  0.242E-06  0.233E-05
  24.700  0.719E-06  0.619E-05  0.240E-06  0.206E-05  0.240E-06  0.206E-05  0.240E-06  0.206E-05
  24.750  0.780E-06  0.541E-05  0.260E-06  0.180E-05  0.260E-06  0.180E-05  0.260E-06  0.180E-05
  24.800  0.112E-05  0.471E-05  0.373E-06  0.157E-05  0.373E-06  0.157E-05  0.373E-06  0.157E-05
  24.850  0.327E-05  0.409E-05  0.109E-05  0.136E-05  0.109E-05  0.136E-05  0.109E-05  0.136E-05
  24.900  0.252E-04  0.354E-05  0.839E-05  0.118E-05  0.839E-05  0.118E-05  0.839E-05  0.118E-05
  24.950  0.307E-03  0.307E-05  0.102E-03  0.102E-05  0.102E-03  0.102E-05  0.102E-03  0.102E-05
  25.000  0.462E-03  0.260E-05  0.154E-03  0.867E-06  0.154E-03  0.867E-06  0.154E-03  0.867E-06
  25.050  0.465E-03  0.223E-05  0.155E-03  0.742E-06  0.155E-03  0.742E-06  0.155E-03  0.742E-06
