# E (eV)  ldosup(E)  ldosdw(E) pdosup(E)  pdosdw(E) 
   5.000  0.000E+00  0.000E+00  0.000E+00  0.000E+00
   5.050  0.000E+00  0.000E+00  0.000E+00  0.000E+00
   5.100  0.000E+00  0.000E+00  0.000E+00  0.000E+00
   5.150  0.000E+00  0.000E+00  0.000E+00  0.000E+00
   5.200  0.000E+00  0.000E+00  0.000E+00  0.000E+00
   5.250  0.000E+00  0.000E+00  0.000E+00  0.000E+00
   5.300  0.000E+00  0.000E+00  0.000E+00  0.000E+00
   5.350  0.000E+00  0.000E+00  0.000E+00  0.000E+00
   5.400  0.000E+00  0.000E+00  0.000E+00  0.000E+00
   5.450  0.000E+00  0.000E+00  0.000E+00  0.000E+00
   5.500  0.000E+00  0.000E+00  0.000E+00  0.000E+00
   5.550  0.000E+00  0.000E+00  0.000E+00  0.000E+00
   5.600  0.000E+00  0.000E+00  0.000E+00  0.000E+00
   5.650  0.000E+00  0.000E+00  0.000E+00  0.000E+00
   5.700  0.000E+00  0.000E+00  0.000E+00  0.000E+00
   5.750  0.000E+00  0.000E+00  0.000E+00  0.000E+00
   5.800  0.000E+00  0.000E+00  0.000E+00  0.000E+00
   5.850  0.000E+00  0.000E+00  0.000E+00  0.000E+00
   5.900  0.000E+00  0.000E+00  0.000E+00  0.000E+00
   5.950  0.000E+00  0.000E+00  0.000E+00  0.000E+00
   6.000  0.000E+00  0.000E+00  0.000E+00  0.000E+00
   6.050  0.000E+00  0.000E+00  0.000E+00  0.000E+00
   6.100  0.000E+00  0.000E+00  0.000E+00  0.000E+00
   6.150  0.000E+00  0.000E+00  0.000E+00  0.000E+00
   6.200  0.000E+00  0.000E+00  0.000E+00  0.000E+00
   6.250  0.000E+00  0.000E+00  0.000E+00  0.000E+00
   6.300  0.000E+00  0.000E+00  0.000E+00  0.000E+00
   6.350  0.000E+00  0.000E+00  0.000E+00  0.000E+00
   6.400  0.000E+00  0.000E+00  0.000E+00  0.000E+00
   6.450  0.000E+00  0.000E+00  0.000E+00  0.000E+00
   6.500  0.000E+00  0.000E+00  0.000E+00  0.000E+00
   6.550  0.000E+00  0.000E+00  0.000E+00  0.000E+00
   6.600  0.000E+00  0.000E+00  0.000E+00  0.000E+00
   6.650  0.000E+00  0.000E+00  0.000E+00  0.000E+00
   6.700  0.000E+00  0.000E+00  0.000E+00  0.000E+00
   6.750  0.000E+00  0.000E+00  0.000E+00  0.000E+00
   6.800  0.000E+00  0.000E+00  0.000E+00  0.000E+00
   6.850  0.000E+00  0.000E+00  0.000E+00  0.000E+00
   6.900  0.000E+00  0.000E+00  0.000E+00  0.000E+00
   6.950  0.000E+00  0.000E+00  0.000E+00  0.000E+00
   7.000  0.000E+00  0.000E+00  0.000E+00  0.000E+00
   7.050  0.000E+00  0.000E+00  0.000E+00  0.000E+00
   7.100  0.000E+00  0.000E+00  0.000E+00  0.000E+00
   7.150  0.000E+00  0.000E+00  0.000E+00  0.000E+00
   7.200  0.000E+00  0.000E+00  0.000E+00  0.000E+00
   7.250  0.000E+00  0.000E+00  0.000E+00  0.000E+00
   7.300  0.000E+00  0.000E+00  0.000E+00  0.000E+00
   7.350  0.000E+00  0.000E+00  0.000E+00  0.000E+00
   7.400  0.000E+00  0.000E+00  0.000E+00  0.000E+00
   7.450  0.000E+00  0.000E+00  0.000E+00  0.000E+00
   7.500  0.000E+00  0.000E+00  0.000E+00  0.000E+00
   7.550  0.000E+00  0.000E+00  0.000E+00  0.000E+00
   7.600  0.000E+00  0.000E+00  0.000E+00  0.000E+00
   7.650  0.000E+00  0.000E+00  0.000E+00  0.000E+00
   7.700  0.000E+00  0.000E+00  0.000E+00  0.000E+00
   7.750  0.000E+00  0.000E+00  0.000E+00  0.000E+00
   7.800  0.000E+00  0.000E+00  0.000E+00  0.000E+00
   7.850  0.000E+00  0.000E+00  0.000E+00  0.000E+00
   7.900  0.000E+00  0.000E+00  0.000E+00  0.000E+00
   7.950  0.000E+00  0.000E+00  0.000E+00  0.000E+00
   8.000  0.000E+00  0.000E+00  0.000E+00  0.000E+00
   8.050  0.000E+00  0.000E+00  0.000E+00  0.000E+00
   8.100  0.000E+00  0.000E+00  0.000E+00  0.000E+00
   8.150  0.000E+00  0.000E+00  0.000E+00  0.000E+00
   8.200  0.000E+00  0.000E+00  0.000E+00  0.000E+00
   8.250  0.000E+00  0.000E+00  0.000E+00  0.000E+00
   8.300  0.000E+00  0.000E+00  0.000E+00  0.000E+00
   8.350  0.000E+00  0.000E+00  0.000E+00  0.000E+00
   8.400  0.000E+00  0.000E+00  0.000E+00  0.000E+00
   8.450  0.000E+00  0.000E+00  0.000E+00  0.000E+00
   8.500  0.000E+00  0.000E+00  0.000E+00  0.000E+00
   8.550  0.000E+00  0.000E+00  0.000E+00  0.000E+00
   8.600  0.000E+00  0.000E+00  0.000E+00  0.000E+00
   8.650  0.000E+00  0.000E+00  0.000E+00  0.000E+00
   8.700  0.000E+00  0.000E+00  0.000E+00  0.000E+00
   8.750  0.000E+00  0.000E+00  0.000E+00  0.000E+00
   8.800  0.000E+00  0.000E+00  0.000E+00  0.000E+00
   8.850  0.000E+00  0.000E+00  0.000E+00  0.000E+00
   8.900  0.000E+00  0.000E+00  0.000E+00  0.000E+00
   8.950  0.000E+00  0.000E+00  0.000E+00  0.000E+00
   9.000  0.000E+00  0.000E+00  0.000E+00  0.000E+00
   9.050  0.000E+00  0.000E+00  0.000E+00  0.000E+00
   9.100  0.000E+00  0.000E+00  0.000E+00  0.000E+00
   9.150  0.000E+00  0.000E+00  0.000E+00  0.000E+00
   9.200  0.000E+00  0.000E+00  0.000E+00  0.000E+00
   9.250  0.000E+00  0.000E+00  0.000E+00  0.000E+00
   9.300  0.000E+00  0.000E+00  0.000E+00  0.000E+00
   9.350  0.000E+00  0.000E+00  0.000E+00  0.000E+00
   9.400  0.116E-02  0.000E+00  0.116E-02  0.000E+00
   9.450  0.647E-02  0.000E+00  0.647E-02  0.000E+00
   9.500  0.857E-02  0.000E+00  0.857E-02  0.000E+00
   9.550  0.107E-01  0.813E-04  0.107E-01  0.813E-04
   9.600  0.115E-01  0.527E-02  0.115E-01  0.527E-02
   9.650  0.118E-01  0.768E-02  0.118E-01  0.768E-02
   9.700  0.126E-01  0.991E-02  0.126E-01  0.991E-02
   9.750  0.134E-01  0.113E-01  0.134E-01  0.113E-01
   9.800  0.142E-01  0.113E-01  0.142E-01  0.113E-01
   9.850  0.145E-01  0.121E-01  0.145E-01  0.121E-01
   9.900  0.146E-01  0.129E-01  0.146E-01  0.129E-01
   9.950  0.148E-01  0.137E-01  0.148E-01  0.137E-01
  10.000  0.151E-01  0.141E-01  0.151E-01  0.141E-01
  10.050  0.154E-01  0.143E-01  0.154E-01  0.143E-01
  10.100  0.158E-01  0.144E-01  0.158E-01  0.144E-01
  10.150  0.162E-01  0.146E-01  0.162E-01  0.146E-01
  10.200  0.165E-01  0.148E-01  0.165E-01  0.148E-01
  10.250  0.165E-01  0.152E-01  0.165E-01  0.152E-01
  10.300  0.166E-01  0.156E-01  0.166E-01  0.156E-01
  10.350  0.167E-01  0.159E-01  0.167E-01  0.159E-01
  10.400  0.168E-01  0.159E-01  0.168E-01  0.159E-01
  10.450  0.170E-01  0.160E-01  0.170E-01  0.160E-01
  10.500  0.172E-01  0.161E-01  0.172E-01  0.161E-01
  10.550  0.174E-01  0.162E-01  0.174E-01  0.162E-01
  10.600  0.176E-01  0.163E-01  0.176E-01  0.163E-01
  10.650  0.178E-01  0.164E-01  0.178E-01  0.164E-01
  10.700  0.180E-01  0.166E-01  0.180E-01  0.166E-01
  10.750  0.181E-01  0.168E-01  0.181E-01  0.168E-01
  10.800  0.181E-01  0.170E-01  0.181E-01  0.170E-01
  10.850  0.183E-01  0.171E-01  0.183E-01  0.171E-01
  10.900  0.184E-01  0.172E-01  0.184E-01  0.172E-01
  10.950  0.186E-01  0.173E-01  0.186E-01  0.173E-01
  11.000  0.188E-01  0.173E-01  0.188E-01  0.173E-01
  11.050  0.189E-01  0.174E-01  0.189E-01  0.174E-01
  11.100  0.192E-01  0.175E-01  0.192E-01  0.175E-01
  11.150  0.194E-01  0.176E-01  0.194E-01  0.176E-01
  11.200  0.196E-01  0.177E-01  0.196E-01  0.177E-01
  11.250  0.198E-01  0.179E-01  0.198E-01  0.179E-01
  11.300  0.199E-01  0.181E-01  0.199E-01  0.181E-01
  11.350  0.201E-01  0.182E-01  0.201E-01  0.182E-01
  11.400  0.203E-01  0.183E-01  0.203E-01  0.183E-01
  11.450  0.205E-01  0.185E-01  0.205E-01  0.185E-01
  11.500  0.207E-01  0.186E-01  0.207E-01  0.186E-01
  11.550  0.210E-01  0.187E-01  0.210E-01  0.187E-01
  11.600  0.213E-01  0.188E-01  0.213E-01  0.188E-01
  11.650  0.216E-01  0.189E-01  0.216E-01  0.189E-01
  11.700  0.218E-01  0.190E-01  0.218E-01  0.190E-01
  11.750  0.220E-01  0.192E-01  0.220E-01  0.192E-01
  11.800  0.224E-01  0.194E-01  0.224E-01  0.194E-01
  11.850  0.228E-01  0.195E-01  0.228E-01  0.195E-01
  11.900  0.232E-01  0.197E-01  0.232E-01  0.197E-01
  11.950  0.236E-01  0.198E-01  0.236E-01  0.198E-01
  12.000  0.239E-01  0.200E-01  0.239E-01  0.200E-01
  12.050  0.243E-01  0.202E-01  0.243E-01  0.202E-01
  12.100  0.247E-01  0.204E-01  0.247E-01  0.204E-01
  12.150  0.253E-01  0.206E-01  0.253E-01  0.206E-01
  12.200  0.258E-01  0.208E-01  0.258E-01  0.208E-01
  12.250  0.264E-01  0.210E-01  0.264E-01  0.210E-01
  12.300  0.270E-01  0.212E-01  0.270E-01  0.212E-01
  12.350  0.277E-01  0.214E-01  0.277E-01  0.214E-01
  12.400  0.283E-01  0.216E-01  0.283E-01  0.216E-01
  12.450  0.292E-01  0.219E-01  0.292E-01  0.219E-01
  12.500  0.303E-01  0.221E-01  0.303E-01  0.221E-01
  12.550  0.314E-01  0.224E-01  0.314E-01  0.224E-01
  12.600  0.324E-01  0.227E-01  0.324E-01  0.227E-01
  12.650  0.336E-01  0.229E-01  0.336E-01  0.229E-01
  12.700  0.352E-01  0.232E-01  0.352E-01  0.232E-01
  12.750  0.370E-01  0.236E-01  0.370E-01  0.236E-01
  12.800  0.400E-01  0.239E-01  0.400E-01  0.239E-01
  12.850  0.433E-01  0.242E-01  0.433E-01  0.242E-01
  12.900  0.490E-01  0.246E-01  0.490E-01  0.246E-01
  12.950  0.795E-01  0.250E-01  0.795E-01  0.250E-01
  13.000  0.749E-01  0.254E-01  0.749E-01  0.254E-01
  13.050  0.730E-01  0.258E-01  0.730E-01  0.258E-01
  13.100  0.713E-01  0.262E-01  0.713E-01  0.262E-01
  13.150  0.704E-01  0.266E-01  0.704E-01  0.266E-01
  13.200  0.682E-01  0.271E-01  0.682E-01  0.271E-01
  13.250  0.673E-01  0.277E-01  0.673E-01  0.277E-01
  13.300  0.661E-01  0.282E-01  0.661E-01  0.282E-01
  13.350  0.656E-01  0.289E-01  0.656E-01  0.289E-01
  13.400  0.641E-01  0.294E-01  0.641E-01  0.294E-01
  13.450  0.626E-01  0.301E-01  0.626E-01  0.301E-01
  13.500  0.616E-01  0.308E-01  0.616E-01  0.308E-01
  13.550  0.617E-01  0.315E-01  0.617E-01  0.315E-01
  13.600  0.624E-01  0.324E-01  0.624E-01  0.324E-01
  13.650  0.679E-01  0.334E-01  0.679E-01  0.334E-01
  13.700  0.687E-01  0.344E-01  0.687E-01  0.344E-01
  13.750  0.512E-01  0.353E-01  0.512E-01  0.353E-01
  13.800  0.420E-01  0.363E-01  0.420E-01  0.363E-01
  13.850  0.360E-01  0.377E-01  0.360E-01  0.377E-01
  13.900  0.318E-01  0.391E-01  0.318E-01  0.391E-01
  13.950  0.281E-01  0.407E-01  0.281E-01  0.407E-01
  14.000  0.238E-01  0.429E-01  0.238E-01  0.429E-01
  14.050  0.214E-01  0.453E-01  0.214E-01  0.453E-01
  14.100  0.185E-01  0.473E-01  0.185E-01  0.473E-01
  14.150  0.124E-01  0.508E-01  0.124E-01  0.508E-01
  14.200  0.871E-02  0.560E-01  0.871E-02  0.560E-01
  14.250  0.655E-02  0.678E-01  0.655E-02  0.678E-01
  14.300  0.456E-02  0.693E-01  0.456E-02  0.693E-01
  14.350  0.286E-02  0.682E-01  0.286E-02  0.682E-01
  14.400  0.181E-02  0.663E-01  0.181E-02  0.663E-01
  14.450  0.179E-02  0.654E-01  0.179E-02  0.654E-01
  14.500  0.224E-02  0.641E-01  0.224E-02  0.641E-01
  14.550  0.284E-02  0.626E-01  0.284E-02  0.626E-01
  14.600  0.317E-02  0.613E-01  0.317E-02  0.613E-01
  14.650  0.297E-02  0.600E-01  0.297E-02  0.600E-01
  14.700  0.313E-02  0.585E-01  0.313E-02  0.585E-01
  14.750  0.382E-02  0.573E-01  0.382E-02  0.573E-01
  14.800  0.507E-02  0.559E-01  0.507E-02  0.559E-01
  14.850  0.617E-02  0.543E-01  0.617E-02  0.543E-01
  14.900  0.653E-02  0.531E-01  0.653E-02  0.531E-01
  14.950  0.669E-02  0.520E-01  0.669E-02  0.520E-01
  15.000  0.673E-02  0.507E-01  0.673E-02  0.507E-01
  15.050  0.739E-02  0.496E-01  0.739E-02  0.496E-01
  15.100  0.848E-02  0.486E-01  0.848E-02  0.486E-01
  15.150  0.919E-02  0.481E-01  0.919E-02  0.481E-01
  15.200  0.987E-02  0.464E-01  0.987E-02  0.464E-01
  15.250  0.116E-01  0.438E-01  0.116E-01  0.438E-01
  15.300  0.963E-02  0.408E-01  0.963E-02  0.408E-01
  15.350  0.868E-02  0.381E-01  0.868E-02  0.381E-01
  15.400  0.759E-02  0.353E-01  0.759E-02  0.353E-01
  15.450  0.710E-02  0.290E-01  0.710E-02  0.290E-01
  15.500  0.606E-02  0.248E-01  0.606E-02  0.248E-01
  15.550  0.555E-02  0.217E-01  0.555E-02  0.217E-01
  15.600  0.519E-02  0.189E-01  0.519E-02  0.189E-01
  15.650  0.486E-02  0.164E-01  0.486E-02  0.164E-01
  15.700  0.455E-02  0.109E-01  0.455E-02  0.109E-01
  15.750  0.428E-02  0.771E-02  0.428E-02  0.771E-02
  15.800  0.400E-02  0.541E-02  0.400E-02  0.541E-02
  15.850  0.375E-02  0.452E-02  0.375E-02  0.452E-02
  15.900  0.349E-02  0.196E-02  0.349E-02  0.196E-02
  15.950  0.323E-02  0.791E-03  0.323E-02  0.791E-03
  16.000  0.306E-02  0.948E-03  0.306E-02  0.948E-03
  16.050  0.280E-02  0.281E-03  0.280E-02  0.281E-03
  16.100  0.258E-02  0.110E-02  0.258E-02  0.110E-02
  16.150  0.240E-02  0.140E-02  0.240E-02  0.140E-02
  16.200  0.227E-02  0.190E-02  0.227E-02  0.190E-02
  16.250  0.221E-02  0.227E-02  0.221E-02  0.227E-02
  16.300  0.224E-02  0.262E-02  0.224E-02  0.262E-02
  16.350  0.266E-02  0.278E-02  0.266E-02  0.278E-02
  16.400  0.835E-02  0.289E-02  0.835E-02  0.289E-02
  16.450  0.729E-02  0.287E-02  0.729E-02  0.287E-02
  16.500  0.719E-02  0.288E-02  0.719E-02  0.288E-02
  16.550  0.705E-02  0.284E-02  0.705E-02  0.284E-02
  16.600  0.655E-02  0.266E-02  0.655E-02  0.266E-02
  16.650  0.643E-02  0.262E-02  0.643E-02  0.262E-02
  16.700  0.614E-02  0.261E-02  0.614E-02  0.261E-02
  16.750  0.637E-02  0.248E-02  0.637E-02  0.248E-02
  16.800  0.723E-02  0.237E-02  0.723E-02  0.237E-02
  16.850  0.514E-02  0.241E-02  0.514E-02  0.241E-02
  16.900  0.545E-02  0.249E-02  0.545E-02  0.249E-02
  16.950  0.658E-02  0.270E-02  0.658E-02  0.270E-02
  17.000  0.709E-02  0.268E-02  0.709E-02  0.268E-02
  17.050  0.755E-02  0.253E-02  0.755E-02  0.253E-02
  17.100  0.777E-02  0.242E-02  0.777E-02  0.242E-02
  17.150  0.786E-02  0.235E-02  0.786E-02  0.235E-02
  17.200  0.790E-02  0.227E-02  0.790E-02  0.227E-02
  17.250  0.786E-02  0.220E-02  0.786E-02  0.220E-02
  17.300  0.781E-02  0.212E-02  0.781E-02  0.212E-02
  17.350  0.760E-02  0.205E-02  0.760E-02  0.205E-02
  17.400  0.753E-02  0.197E-02  0.753E-02  0.197E-02
  17.450  0.744E-02  0.191E-02  0.744E-02  0.191E-02
  17.500  0.729E-02  0.183E-02  0.729E-02  0.183E-02
  17.550  0.712E-02  0.173E-02  0.712E-02  0.173E-02
  17.600  0.676E-02  0.166E-02  0.676E-02  0.166E-02
  17.650  0.650E-02  0.156E-02  0.650E-02  0.156E-02
  17.700  0.627E-02  0.149E-02  0.627E-02  0.149E-02
  17.750  0.598E-02  0.139E-02  0.598E-02  0.139E-02
  17.800  0.576E-02  0.131E-02  0.576E-02  0.131E-02
  17.850  0.561E-02  0.124E-02  0.561E-02  0.124E-02
  17.900  0.556E-02  0.116E-02  0.556E-02  0.116E-02
  17.950  0.565E-02  0.108E-02  0.565E-02  0.108E-02
  18.000  0.577E-02  0.101E-02  0.577E-02  0.101E-02
  18.050  0.595E-02  0.936E-03  0.595E-02  0.936E-03
  18.100  0.618E-02  0.874E-03  0.618E-02  0.874E-03
  18.150  0.643E-02  0.822E-03  0.643E-02  0.822E-03
  18.200  0.670E-02  0.758E-03  0.670E-02  0.758E-03
  18.250  0.696E-02  0.728E-03  0.696E-02  0.728E-03
  18.300  0.724E-02  0.710E-03  0.724E-02  0.710E-03
  18.350  0.749E-02  0.688E-03  0.749E-02  0.688E-03
  18.400  0.770E-02  0.728E-03  0.770E-02  0.728E-03
  18.450  0.792E-02  0.831E-03  0.792E-02  0.831E-03
  18.500  0.814E-02  0.109E-02  0.814E-02  0.109E-02
  18.550  0.832E-02  0.225E-02  0.832E-02  0.225E-02
  18.600  0.849E-02  0.455E-02  0.849E-02  0.455E-02
  18.650  0.869E-02  0.505E-02  0.869E-02  0.505E-02
  18.700  0.886E-02  0.418E-02  0.886E-02  0.418E-02
  18.750  0.903E-02  0.399E-02  0.903E-02  0.399E-02
  18.800  0.921E-02  0.378E-02  0.921E-02  0.378E-02
  18.850  0.942E-02  0.356E-02  0.942E-02  0.356E-02
  18.900  0.961E-02  0.328E-02  0.961E-02  0.328E-02
  18.950  0.979E-02  0.304E-02  0.979E-02  0.304E-02
  19.000  0.995E-02  0.275E-02  0.995E-02  0.275E-02
  19.050  0.101E-01  0.251E-02  0.101E-01  0.251E-02
  19.100  0.103E-01  0.229E-02  0.103E-01  0.229E-02
  19.150  0.104E-01  0.212E-02  0.104E-01  0.212E-02
  19.200  0.105E-01  0.196E-02  0.105E-01  0.196E-02
  19.250  0.107E-01  0.186E-02  0.107E-01  0.186E-02
  19.300  0.108E-01  0.185E-02  0.108E-01  0.185E-02
  19.350  0.109E-01  0.193E-02  0.109E-01  0.193E-02
  19.400  0.110E-01  0.232E-02  0.110E-01  0.232E-02
  19.450  0.111E-01  0.134E-02  0.111E-01  0.134E-02
  19.500  0.112E-01  0.965E-03  0.112E-01  0.965E-03
  19.550  0.113E-01  0.780E-03  0.113E-01  0.780E-03
  19.600  0.114E-01  0.789E-03  0.114E-01  0.789E-03
  19.650  0.115E-01  0.104E-02  0.115E-01  0.104E-02
  19.700  0.116E-01  0.175E-02  0.116E-01  0.175E-02
  19.750  0.117E-01  0.368E-02  0.117E-01  0.368E-02
  19.800  0.118E-01  0.153E-01  0.118E-01  0.153E-01
  19.850  0.118E-01  0.628E-02  0.118E-01  0.628E-02
  19.900  0.119E-01  0.531E-02  0.119E-01  0.531E-02
  19.950  0.120E-01  0.489E-02  0.120E-01  0.489E-02
  20.000  0.121E-01  0.458E-02  0.121E-01  0.458E-02
  20.050  0.121E-01  0.446E-02  0.121E-01  0.446E-02
  20.100  0.122E-01  0.444E-02  0.122E-01  0.444E-02
  20.150  0.122E-01  0.447E-02  0.122E-01  0.447E-02
  20.200  0.123E-01  0.460E-02  0.123E-01  0.460E-02
  20.250  0.123E-01  0.468E-02  0.123E-01  0.468E-02
  20.300  0.122E-01  0.492E-02  0.122E-01  0.492E-02
  20.350  0.122E-01  0.516E-02  0.122E-01  0.516E-02
  20.400  0.122E-01  0.541E-02  0.122E-01  0.541E-02
  20.450  0.122E-01  0.562E-02  0.122E-01  0.562E-02
  20.500  0.122E-01  0.570E-02  0.122E-01  0.570E-02
  20.550  0.122E-01  0.599E-02  0.122E-01  0.599E-02
  20.600  0.121E-01  0.623E-02  0.121E-01  0.623E-02
  20.650  0.121E-01  0.646E-02  0.121E-01  0.646E-02
  20.700  0.121E-01  0.671E-02  0.121E-01  0.671E-02
  20.750  0.121E-01  0.691E-02  0.121E-01  0.691E-02
  20.800  0.120E-01  0.707E-02  0.120E-01  0.707E-02
  20.850  0.120E-01  0.722E-02  0.120E-01  0.722E-02
  20.900  0.120E-01  0.744E-02  0.120E-01  0.744E-02
  20.950  0.119E-01  0.759E-02  0.119E-01  0.759E-02
  21.000  0.119E-01  0.777E-02  0.119E-01  0.777E-02
  21.050  0.118E-01  0.794E-02  0.118E-01  0.794E-02
  21.100  0.118E-01  0.812E-02  0.118E-01  0.812E-02
  21.150  0.117E-01  0.831E-02  0.117E-01  0.831E-02
  21.200  0.116E-01  0.845E-02  0.116E-01  0.845E-02
  21.250  0.115E-01  0.858E-02  0.115E-01  0.858E-02
  21.300  0.114E-01  0.874E-02  0.114E-01  0.874E-02
  21.350  0.113E-01  0.889E-02  0.113E-01  0.889E-02
  21.400  0.112E-01  0.903E-02  0.112E-01  0.903E-02
  21.450  0.110E-01  0.915E-02  0.110E-01  0.915E-02
  21.500  0.109E-01  0.927E-02  0.109E-01  0.927E-02
  21.550  0.108E-01  0.937E-02  0.108E-01  0.937E-02
  21.600  0.107E-01  0.948E-02  0.107E-01  0.948E-02
  21.650  0.105E-01  0.961E-02  0.105E-01  0.961E-02
  21.700  0.104E-01  0.972E-02  0.104E-01  0.972E-02
  21.750  0.102E-01  0.983E-02  0.102E-01  0.983E-02
  21.800  0.101E-01  0.990E-02  0.101E-01  0.990E-02
  21.850  0.993E-02  0.994E-02  0.993E-02  0.994E-02
  21.900  0.979E-02  0.999E-02  0.979E-02  0.999E-02
  21.950  0.967E-02  0.101E-01  0.967E-02  0.101E-01
  22.000  0.954E-02  0.100E-01  0.954E-02  0.100E-01
  22.050  0.939E-02  0.101E-01  0.939E-02  0.101E-01
  22.100  0.923E-02  0.101E-01  0.923E-02  0.101E-01
  22.150  0.909E-02  0.101E-01  0.909E-02  0.101E-01
  22.200  0.894E-02  0.102E-01  0.894E-02  0.102E-01
  22.250  0.880E-02  0.102E-01  0.880E-02  0.102E-01
  22.300  0.866E-02  0.102E-01  0.866E-02  0.102E-01
  22.350  0.852E-02  0.102E-01  0.852E-02  0.102E-01
  22.400  0.837E-02  0.102E-01  0.837E-02  0.102E-01
  22.450  0.823E-02  0.102E-01  0.823E-02  0.102E-01
  22.500  0.807E-02  0.101E-01  0.807E-02  0.101E-01
  22.550  0.791E-02  0.101E-01  0.791E-02  0.101E-01
  22.600  0.776E-02  0.101E-01  0.776E-02  0.101E-01
  22.650  0.755E-02  0.100E-01  0.755E-02  0.100E-01
  22.700  0.720E-02  0.999E-02  0.720E-02  0.999E-02
  22.750  0.709E-02  0.991E-02  0.709E-02  0.991E-02
  22.800  0.691E-02  0.982E-02  0.691E-02  0.982E-02
  22.850  0.674E-02  0.974E-02  0.674E-02  0.974E-02
  22.900  0.657E-02  0.960E-02  0.657E-02  0.960E-02
  22.950  0.640E-02  0.949E-02  0.640E-02  0.949E-02
  23.000  0.619E-02  0.938E-02  0.619E-02  0.938E-02
  23.050  0.599E-02  0.928E-02  0.599E-02  0.928E-02
  23.100  0.580E-02  0.916E-02  0.580E-02  0.916E-02
  23.150  0.568E-02  0.904E-02  0.568E-02  0.904E-02
  23.200  0.552E-02  0.893E-02  0.552E-02  0.893E-02
  23.250  0.536E-02  0.880E-02  0.536E-02  0.880E-02
  23.300  0.520E-02  0.868E-02  0.520E-02  0.868E-02
  23.350  0.502E-02  0.854E-02  0.502E-02  0.854E-02
  23.400  0.486E-02  0.843E-02  0.486E-02  0.843E-02
  23.450  0.471E-02  0.832E-02  0.471E-02  0.832E-02
  23.500  0.453E-02  0.818E-02  0.453E-02  0.818E-02
  23.550  0.437E-02  0.803E-02  0.437E-02  0.803E-02
  23.600  0.425E-02  0.788E-02  0.425E-02  0.788E-02
  23.650  0.410E-02  0.774E-02  0.410E-02  0.774E-02
  23.700  0.393E-02  0.758E-02  0.393E-02  0.758E-02
  23.750  0.382E-02  0.744E-02  0.382E-02  0.744E-02
  23.800  0.365E-02  0.730E-02  0.365E-02  0.730E-02
  23.850  0.346E-02  0.713E-02  0.346E-02  0.713E-02
  23.900  0.332E-02  0.693E-02  0.332E-02  0.693E-02
  23.950  0.319E-02  0.672E-02  0.319E-02  0.672E-02
  24.000  0.308E-02  0.651E-02  0.308E-02  0.651E-02
  24.050  0.295E-02  0.635E-02  0.295E-02  0.635E-02
  24.100  0.284E-02  0.617E-02  0.284E-02  0.617E-02
  24.150  0.284E-02  0.597E-02  0.284E-02  0.597E-02
  24.200  0.272E-02  0.586E-02  0.272E-02  0.586E-02
  24.250  0.257E-02  0.566E-02  0.257E-02  0.566E-02
  24.300  0.241E-02  0.549E-02  0.241E-02  0.549E-02
  24.350  0.225E-02  0.532E-02  0.225E-02  0.532E-02
  24.400  0.213E-02  0.516E-02  0.213E-02  0.516E-02
  24.450  0.202E-02  0.500E-02  0.202E-02  0.500E-02
  24.500  0.191E-02  0.483E-02  0.191E-02  0.483E-02
  24.550  0.180E-02  0.465E-02  0.180E-02  0.465E-02
  24.600  0.174E-02  0.447E-02  0.174E-02  0.447E-02
  24.650  0.170E-02  0.432E-02  0.170E-02  0.432E-02
  24.700  0.162E-02  0.418E-02  0.162E-02  0.418E-02
  24.750  0.159E-02  0.400E-02  0.159E-02  0.400E-02
  24.800  0.165E-02  0.383E-02  0.165E-02  0.383E-02
  24.850  0.209E-02  0.369E-02  0.209E-02  0.369E-02
  24.900  0.673E-02  0.355E-02  0.673E-02  0.355E-02
  24.950  0.528E-01  0.342E-02  0.528E-01  0.342E-02
  25.000  0.105E+00  0.322E-02  0.105E+00  0.322E-02
  25.050  0.106E+00  0.304E-02  0.106E+00  0.304E-02
