# E (eV)  ldosup(E)  ldosdw(E) pdosup(E)  pdosdw(E)  pdosup(E)  pdosdw(E)  pdosup(E)  pdosdw(E) 
   5.000  0.000E+00  0.000E+00  0.000E+00  0.000E+00  0.000E+00  0.000E+00  0.000E+00  0.000E+00
   5.050  0.000E+00  0.000E+00  0.000E+00  0.000E+00  0.000E+00  0.000E+00  0.000E+00  0.000E+00
   5.100  0.000E+00  0.000E+00  0.000E+00  0.000E+00  0.000E+00  0.000E+00  0.000E+00  0.000E+00
   5.150  0.000E+00  0.000E+00  0.000E+00  0.000E+00  0.000E+00  0.000E+00  0.000E+00  0.000E+00
   5.200  0.000E+00  0.000E+00  0.000E+00  0.000E+00  0.000E+00  0.000E+00  0.000E+00  0.000E+00
   5.250  0.000E+00  0.000E+00  0.000E+00  0.000E+00  0.000E+00  0.000E+00  0.000E+00  0.000E+00
   5.300  0.000E+00  0.000E+00  0.000E+00  0.000E+00  0.000E+00  0.000E+00  0.000E+00  0.000E+00
   5.350  0.000E+00  0.000E+00  0.000E+00  0.000E+00  0.000E+00  0.000E+00  0.000E+00  0.000E+00
   5.400  0.000E+00  0.000E+00  0.000E+00  0.000E+00  0.000E+00  0.000E+00  0.000E+00  0.000E+00
   5.450  0.000E+00  0.000E+00  0.000E+00  0.000E+00  0.000E+00  0.000E+00  0.000E+00  0.000E+00
   5.500  0.000E+00  0.000E+00  0.000E+00  0.000E+00  0.000E+00  0.000E+00  0.000E+00  0.000E+00
   5.550  0.000E+00  0.000E+00  0.000E+00  0.000E+00  0.000E+00  0.000E+00  0.000E+00  0.000E+00
   5.600  0.000E+00  0.000E+00  0.000E+00  0.000E+00  0.000E+00  0.000E+00  0.000E+00  0.000E+00
   5.650  0.000E+00  0.000E+00  0.000E+00  0.000E+00  0.000E+00  0.000E+00  0.000E+00  0.000E+00
   5.700  0.000E+00  0.000E+00  0.000E+00  0.000E+00  0.000E+00  0.000E+00  0.000E+00  0.000E+00
   5.750  0.000E+00  0.000E+00  0.000E+00  0.000E+00  0.000E+00  0.000E+00  0.000E+00  0.000E+00
   5.800  0.000E+00  0.000E+00  0.000E+00  0.000E+00  0.000E+00  0.000E+00  0.000E+00  0.000E+00
   5.850  0.000E+00  0.000E+00  0.000E+00  0.000E+00  0.000E+00  0.000E+00  0.000E+00  0.000E+00
   5.900  0.000E+00  0.000E+00  0.000E+00  0.000E+00  0.000E+00  0.000E+00  0.000E+00  0.000E+00
   5.950  0.000E+00  0.000E+00  0.000E+00  0.000E+00  0.000E+00  0.000E+00  0.000E+00  0.000E+00
   6.000  0.000E+00  0.000E+00  0.000E+00  0.000E+00  0.000E+00  0.000E+00  0.000E+00  0.000E+00
   6.050  0.000E+00  0.000E+00  0.000E+00  0.000E+00  0.000E+00  0.000E+00  0.000E+00  0.000E+00
   6.100  0.000E+00  0.000E+00  0.000E+00  0.000E+00  0.000E+00  0.000E+00  0.000E+00  0.000E+00
   6.150  0.000E+00  0.000E+00  0.000E+00  0.000E+00  0.000E+00  0.000E+00  0.000E+00  0.000E+00
   6.200  0.000E+00  0.000E+00  0.000E+00  0.000E+00  0.000E+00  0.000E+00  0.000E+00  0.000E+00
   6.250  0.000E+00  0.000E+00  0.000E+00  0.000E+00  0.000E+00  0.000E+00  0.000E+00  0.000E+00
   6.300  0.000E+00  0.000E+00  0.000E+00  0.000E+00  0.000E+00  0.000E+00  0.000E+00  0.000E+00
   6.350  0.000E+00  0.000E+00  0.000E+00  0.000E+00  0.000E+00  0.000E+00  0.000E+00  0.000E+00
   6.400  0.000E+00  0.000E+00  0.000E+00  0.000E+00  0.000E+00  0.000E+00  0.000E+00  0.000E+00
   6.450  0.000E+00  0.000E+00  0.000E+00  0.000E+00  0.000E+00  0.000E+00  0.000E+00  0.000E+00
   6.500  0.000E+00  0.000E+00  0.000E+00  0.000E+00  0.000E+00  0.000E+00  0.000E+00  0.000E+00
   6.550  0.000E+00  0.000E+00  0.000E+00  0.000E+00  0.000E+00  0.000E+00  0.000E+00  0.000E+00
   6.600  0.000E+00  0.000E+00  0.000E+00  0.000E+00  0.000E+00  0.000E+00  0.000E+00  0.000E+00
   6.650  0.000E+00  0.000E+00  0.000E+00  0.000E+00  0.000E+00  0.000E+00  0.000E+00  0.000E+00
   6.700  0.000E+00  0.000E+00  0.000E+00  0.000E+00  0.000E+00  0.000E+00  0.000E+00  0.000E+00
   6.750  0.000E+00  0.000E+00  0.000E+00  0.000E+00  0.000E+00  0.000E+00  0.000E+00  0.000E+00
   6.800  0.000E+00  0.000E+00  0.000E+00  0.000E+00  0.000E+00  0.000E+00  0.000E+00  0.000E+00
   6.850  0.000E+00  0.000E+00  0.000E+00  0.000E+00  0.000E+00  0.000E+00  0.000E+00  0.000E+00
   6.900  0.000E+00  0.000E+00  0.000E+00  0.000E+00  0.000E+00  0.000E+00  0.000E+00  0.000E+00
   6.950  0.000E+00  0.000E+00  0.000E+00  0.000E+00  0.000E+00  0.000E+00  0.000E+00  0.000E+00
   7.000  0.000E+00  0.000E+00  0.000E+00  0.000E+00  0.000E+00  0.000E+00  0.000E+00  0.000E+00
   7.050  0.000E+00  0.000E+00  0.000E+00  0.000E+00  0.000E+00  0.000E+00  0.000E+00  0.000E+00
   7.100  0.000E+00  0.000E+00  0.000E+00  0.000E+00  0.000E+00  0.000E+00  0.000E+00  0.000E+00
   7.150  0.000E+00  0.000E+00  0.000E+00  0.000E+00  0.000E+00  0.000E+00  0.000E+00  0.000E+00
   7.200  0.000E+00  0.000E+00  0.000E+00  0.000E+00  0.000E+00  0.000E+00  0.000E+00  0.000E+00
   7.250  0.000E+00  0.000E+00  0.000E+00  0.000E+00  0.000E+00  0.000E+00  0.000E+00  0.000E+00
   7.300  0.000E+00  0.000E+00  0.000E+00  0.000E+00  0.000E+00  0.000E+00  0.000E+00  0.000E+00
   7.350  0.000E+00  0.000E+00  0.000E+00  0.000E+00  0.000E+00  0.000E+00  0.000E+00  0.000E+00
   7.400  0.000E+00  0.000E+00  0.000E+00  0.000E+00  0.000E+00  0.000E+00  0.000E+00  0.000E+00
   7.450  0.000E+00  0.000E+00  0.000E+00  0.000E+00  0.000E+00  0.000E+00  0.000E+00  0.000E+00
   7.500  0.000E+00  0.000E+00  0.000E+00  0.000E+00  0.000E+00  0.000E+00  0.000E+00  0.000E+00
   7.550  0.000E+00  0.000E+00  0.000E+00  0.000E+00  0.000E+00  0.000E+00  0.000E+00  0.000E+00
   7.600  0.000E+00  0.000E+00  0.000E+00  0.000E+00  0.000E+00  0.000E+00  0.000E+00  0.000E+00
   7.650  0.000E+00  0.000E+00  0.000E+00  0.000E+00  0.000E+00  0.000E+00  0.000E+00  0.000E+00
   7.700  0.000E+00  0.000E+00  0.000E+00  0.000E+00  0.000E+00  0.000E+00  0.000E+00  0.000E+00
   7.750  0.000E+00  0.000E+00  0.000E+00  0.000E+00  0.000E+00  0.000E+00  0.000E+00  0.000E+00
   7.800  0.000E+00  0.000E+00  0.000E+00  0.000E+00  0.000E+00  0.000E+00  0.000E+00  0.000E+00
   7.850  0.000E+00  0.000E+00  0.000E+00  0.000E+00  0.000E+00  0.000E+00  0.000E+00  0.000E+00
   7.900  0.000E+00  0.000E+00  0.000E+00  0.000E+00  0.000E+00  0.000E+00  0.000E+00  0.000E+00
   7.950  0.000E+00  0.000E+00  0.000E+00  0.000E+00  0.000E+00  0.000E+00  0.000E+00  0.000E+00
   8.000  0.000E+00  0.000E+00  0.000E+00  0.000E+00  0.000E+00  0.000E+00  0.000E+00  0.000E+00
   8.050  0.000E+00  0.000E+00  0.000E+00  0.000E+00  0.000E+00  0.000E+00  0.000E+00  0.000E+00
   8.100  0.000E+00  0.000E+00  0.000E+00  0.000E+00  0.000E+00  0.000E+00  0.000E+00  0.000E+00
   8.150  0.000E+00  0.000E+00  0.000E+00  0.000E+00  0.000E+00  0.000E+00  0.000E+00  0.000E+00
   8.200  0.000E+00  0.000E+00  0.000E+00  0.000E+00  0.000E+00  0.000E+00  0.000E+00  0.000E+00
   8.250  0.000E+00  0.000E+00  0.000E+00  0.000E+00  0.000E+00  0.000E+00  0.000E+00  0.000E+00
   8.300  0.000E+00  0.000E+00  0.000E+00  0.000E+00  0.000E+00  0.000E+00  0.000E+00  0.000E+00
   8.350  0.000E+00  0.000E+00  0.000E+00  0.000E+00  0.000E+00  0.000E+00  0.000E+00  0.000E+00
   8.400  0.000E+00  0.000E+00  0.000E+00  0.000E+00  0.000E+00  0.000E+00  0.000E+00  0.000E+00
   8.450  0.000E+00  0.000E+00  0.000E+00  0.000E+00  0.000E+00  0.000E+00  0.000E+00  0.000E+00
   8.500  0.000E+00  0.000E+00  0.000E+00  0.000E+00  0.000E+00  0.000E+00  0.000E+00  0.000E+00
   8.550  0.000E+00  0.000E+00  0.000E+00  0.000E+00  0.000E+00  0.000E+00  0.000E+00  0.000E+00
   8.600  0.000E+00  0.000E+00  0.000E+00  0.000E+00  0.000E+00  0.000E+00  0.000E+00  0.000E+00
   8.650  0.000E+00  0.000E+00  0.000E+00  0.000E+00  0.000E+00  0.000E+00  0.000E+00  0.000E+00
   8.700  0.000E+00  0.964E-05  0.000E+00  0.321E-05  0.000E+00  0.321E-05  0.000E+00  0.321E-05
   8.750  0.236E-04  0.219E-03  0.788E-05  0.730E-04  0.788E-05  0.730E-04  0.788E-05  0.730E-04
   8.800  0.253E-03  0.513E-03  0.844E-04  0.171E-03  0.844E-04  0.171E-03  0.844E-04  0.171E-03
   8.850  0.561E-03  0.917E-03  0.187E-03  0.306E-03  0.187E-03  0.306E-03  0.187E-03  0.306E-03
   8.900  0.970E-03  0.132E-02  0.323E-03  0.439E-03  0.323E-03  0.439E-03  0.323E-03  0.439E-03
   8.950  0.138E-02  0.182E-02  0.460E-03  0.606E-03  0.460E-03  0.606E-03  0.460E-03  0.606E-03
   9.000  0.188E-02  0.229E-02  0.626E-03  0.762E-03  0.626E-03  0.762E-03  0.626E-03  0.762E-03
   9.050  0.235E-02  0.281E-02  0.785E-03  0.937E-03  0.785E-03  0.937E-03  0.785E-03  0.937E-03
   9.100  0.289E-02  0.337E-02  0.962E-03  0.112E-02  0.962E-03  0.112E-02  0.962E-03  0.112E-02
   9.150  0.345E-02  0.389E-02  0.115E-02  0.130E-02  0.115E-02  0.130E-02  0.115E-02  0.130E-02
   9.200  0.397E-02  0.446E-02  0.132E-02  0.149E-02  0.132E-02  0.149E-02  0.132E-02  0.149E-02
   9.250  0.455E-02  0.507E-02  0.152E-02  0.169E-02  0.152E-02  0.169E-02  0.152E-02  0.169E-02
   9.300  0.517E-02  0.565E-02  0.172E-02  0.188E-02  0.172E-02  0.188E-02  0.172E-02  0.188E-02
   9.350  0.574E-02  0.622E-02  0.191E-02  0.207E-02  0.191E-02  0.207E-02  0.191E-02  0.207E-02
   9.400  0.632E-02  0.682E-02  0.211E-02  0.227E-02  0.211E-02  0.227E-02  0.211E-02  0.227E-02
   9.450  0.693E-02  0.746E-02  0.231E-02  0.249E-02  0.231E-02  0.249E-02  0.231E-02  0.249E-02
   9.500  0.758E-02  0.809E-02  0.253E-02  0.270E-02  0.253E-02  0.270E-02  0.253E-02  0.270E-02
   9.550  0.820E-02  0.867E-02  0.273E-02  0.289E-02  0.273E-02  0.289E-02  0.273E-02  0.289E-02
   9.600  0.879E-02  0.929E-02  0.293E-02  0.310E-02  0.293E-02  0.310E-02  0.293E-02  0.310E-02
   9.650  0.942E-02  0.992E-02  0.314E-02  0.331E-02  0.314E-02  0.331E-02  0.314E-02  0.331E-02
   9.700  0.101E-01  0.106E-01  0.336E-02  0.353E-02  0.336E-02  0.353E-02  0.336E-02  0.353E-02
   9.750  0.107E-01  0.112E-01  0.358E-02  0.373E-02  0.358E-02  0.373E-02  0.358E-02  0.373E-02
   9.800  0.113E-01  0.118E-01  0.378E-02  0.393E-02  0.378E-02  0.393E-02  0.378E-02  0.393E-02
   9.850  0.120E-01  0.124E-01  0.399E-02  0.415E-02  0.399E-02  0.415E-02  0.399E-02  0.415E-02
   9.900  0.126E-01  0.131E-01  0.421E-02  0.436E-02  0.421E-02  0.436E-02  0.421E-02  0.436E-02
   9.950  0.133E-01  0.138E-01  0.442E-02  0.459E-02  0.442E-02  0.459E-02  0.442E-02  0.459E-02
  10.000  0.140E-01  0.144E-01  0.466E-02  0.480E-02  0.466E-02  0.480E-02  0.466E-02  0.480E-02
  10.050  0.146E-01  0.150E-01  0.487E-02  0.500E-02  0.487E-02  0.500E-02  0.487E-02  0.500E-02
  10.100  0.152E-01  0.156E-01  0.508E-02  0.521E-02  0.508E-02  0.521E-02  0.508E-02  0.521E-02
  10.150  0.159E-01  0.163E-01  0.529E-02  0.543E-02  0.529E-02  0.543E-02  0.529E-02  0.543E-02
  10.200  0.166E-01  0.170E-01  0.552E-02  0.566E-02  0.552E-02  0.566E-02  0.552E-02  0.566E-02
  10.250  0.172E-01  0.176E-01  0.575E-02  0.588E-02  0.575E-02  0.588E-02  0.575E-02  0.588E-02
  10.300  0.179E-01  0.183E-01  0.597E-02  0.609E-02  0.597E-02  0.609E-02  0.597E-02  0.609E-02
  10.350  0.186E-01  0.189E-01  0.619E-02  0.631E-02  0.619E-02  0.631E-02  0.619E-02  0.631E-02
  10.400  0.193E-01  0.196E-01  0.642E-02  0.652E-02  0.642E-02  0.652E-02  0.642E-02  0.652E-02
  10.450  0.199E-01  0.202E-01  0.664E-02  0.674E-02  0.664E-02  0.674E-02  0.664E-02  0.674E-02
  10.500  0.206E-01  0.209E-01  0.687E-02  0.697E-02  0.687E-02  0.697E-02  0.687E-02  0.697E-02
  10.550  0.213E-01  0.216E-01  0.711E-02  0.720E-02  0.711E-02  0.720E-02  0.711E-02  0.720E-02
  10.600  0.220E-01  0.222E-01  0.734E-02  0.741E-02  0.734E-02  0.741E-02  0.734E-02  0.741E-02
  10.650  0.227E-01  0.229E-01  0.756E-02  0.763E-02  0.756E-02  0.763E-02  0.756E-02  0.763E-02
  10.700  0.234E-01  0.236E-01  0.779E-02  0.785E-02  0.779E-02  0.785E-02  0.779E-02  0.785E-02
  10.750  0.241E-01  0.242E-01  0.803E-02  0.808E-02  0.803E-02  0.808E-02  0.803E-02  0.808E-02
  10.800  0.248E-01  0.249E-01  0.827E-02  0.831E-02  0.827E-02  0.831E-02  0.827E-02  0.831E-02
  10.850  0.255E-01  0.256E-01  0.851E-02  0.854E-02  0.851E-02  0.854E-02  0.851E-02  0.854E-02
  10.900  0.263E-01  0.264E-01  0.876E-02  0.879E-02  0.876E-02  0.879E-02  0.876E-02  0.879E-02
  10.950  0.270E-01  0.270E-01  0.901E-02  0.901E-02  0.901E-02  0.901E-02  0.901E-02  0.901E-02
  11.000  0.277E-01  0.277E-01  0.924E-02  0.923E-02  0.924E-02  0.923E-02  0.924E-02  0.923E-02
  11.050  0.284E-01  0.284E-01  0.948E-02  0.946E-02  0.948E-02  0.946E-02  0.948E-02  0.946E-02
  11.100  0.292E-01  0.291E-01  0.972E-02  0.969E-02  0.972E-02  0.969E-02  0.972E-02  0.969E-02
  11.150  0.299E-01  0.298E-01  0.998E-02  0.993E-02  0.998E-02  0.993E-02  0.998E-02  0.993E-02
  11.200  0.307E-01  0.305E-01  0.102E-01  0.102E-01  0.102E-01  0.102E-01  0.102E-01  0.102E-01
  11.250  0.315E-01  0.313E-01  0.105E-01  0.104E-01  0.105E-01  0.104E-01  0.105E-01  0.104E-01
  11.300  0.323E-01  0.320E-01  0.108E-01  0.107E-01  0.108E-01  0.107E-01  0.108E-01  0.107E-01
  11.350  0.331E-01  0.327E-01  0.110E-01  0.109E-01  0.110E-01  0.109E-01  0.110E-01  0.109E-01
  11.400  0.339E-01  0.334E-01  0.113E-01  0.111E-01  0.113E-01  0.111E-01  0.113E-01  0.111E-01
  11.450  0.347E-01  0.342E-01  0.116E-01  0.114E-01  0.116E-01  0.114E-01  0.116E-01  0.114E-01
  11.500  0.355E-01  0.349E-01  0.118E-01  0.116E-01  0.118E-01  0.116E-01  0.118E-01  0.116E-01
  11.550  0.364E-01  0.357E-01  0.121E-01  0.119E-01  0.121E-01  0.119E-01  0.121E-01  0.119E-01
  11.600  0.372E-01  0.365E-01  0.124E-01  0.122E-01  0.124E-01  0.122E-01  0.124E-01  0.122E-01
  11.650  0.381E-01  0.372E-01  0.127E-01  0.124E-01  0.127E-01  0.124E-01  0.127E-01  0.124E-01
  11.700  0.390E-01  0.380E-01  0.130E-01  0.127E-01  0.130E-01  0.127E-01  0.130E-01  0.127E-01
  11.750  0.398E-01  0.389E-01  0.133E-01  0.130E-01  0.133E-01  0.130E-01  0.133E-01  0.130E-01
  11.800  0.408E-01  0.396E-01  0.136E-01  0.132E-01  0.136E-01  0.132E-01  0.136E-01  0.132E-01
  11.850  0.418E-01  0.405E-01  0.139E-01  0.135E-01  0.139E-01  0.135E-01  0.139E-01  0.135E-01
  11.900  0.428E-01  0.413E-01  0.143E-01  0.138E-01  0.143E-01  0.138E-01  0.143E-01  0.138E-01
  11.950  0.437E-01  0.422E-01  0.146E-01  0.141E-01  0.146E-01  0.141E-01  0.146E-01  0.141E-01
  12.000  0.446E-01  0.430E-01  0.149E-01  0.143E-01  0.149E-01  0.143E-01  0.149E-01  0.143E-01
  12.050  0.457E-01  0.438E-01  0.152E-01  0.146E-01  0.152E-01  0.146E-01  0.152E-01  0.146E-01
  12.100  0.468E-01  0.447E-01  0.156E-01  0.149E-01  0.156E-01  0.149E-01  0.156E-01  0.149E-01
  12.150  0.478E-01  0.457E-01  0.159E-01  0.152E-01  0.159E-01  0.152E-01  0.159E-01  0.152E-01
  12.200  0.490E-01  0.465E-01  0.163E-01  0.155E-01  0.163E-01  0.155E-01  0.163E-01  0.155E-01
  12.250  0.502E-01  0.475E-01  0.167E-01  0.158E-01  0.167E-01  0.158E-01  0.167E-01  0.158E-01
  12.300  0.515E-01  0.484E-01  0.172E-01  0.161E-01  0.172E-01  0.161E-01  0.172E-01  0.161E-01
  12.350  0.525E-01  0.495E-01  0.175E-01  0.165E-01  0.175E-01  0.165E-01  0.175E-01  0.165E-01
  12.400  0.539E-01  0.503E-01  0.180E-01  0.168E-01  0.180E-01  0.168E-01  0.180E-01  0.168E-01
  12.450  0.551E-01  0.513E-01  0.184E-01  0.171E-01  0.184E-01  0.171E-01  0.184E-01  0.171E-01
  12.500  0.567E-01  0.524E-01  0.189E-01  0.175E-01  0.189E-01  0.175E-01  0.189E-01  0.175E-01
  12.550  0.582E-01  0.534E-01  0.194E-01  0.178E-01  0.194E-01  0.178E-01  0.194E-01  0.178E-01
  12.600  0.597E-01  0.545E-01  0.199E-01  0.182E-01  0.199E-01  0.182E-01  0.199E-01  0.182E-01
  12.650  0.613E-01  0.557E-01  0.204E-01  0.186E-01  0.204E-01  0.186E-01  0.204E-01  0.186E-01
  12.700  0.629E-01  0.569E-01  0.210E-01  0.190E-01  0.210E-01  0.190E-01  0.210E-01  0.190E-01
  12.750  0.648E-01  0.580E-01  0.216E-01  0.193E-01  0.216E-01  0.193E-01  0.216E-01  0.193E-01
  12.800  0.669E-01  0.591E-01  0.223E-01  0.197E-01  0.223E-01  0.197E-01  0.223E-01  0.197E-01
  12.850  0.688E-01  0.605E-01  0.229E-01  0.202E-01  0.229E-01  0.202E-01  0.229E-01  0.202E-01
  12.900  0.710E-01  0.617E-01  0.237E-01  0.206E-01  0.237E-01  0.206E-01  0.237E-01  0.206E-01
  12.950  0.732E-01  0.632E-01  0.244E-01  0.211E-01  0.244E-01  0.211E-01  0.244E-01  0.211E-01
  13.000  0.754E-01  0.646E-01  0.251E-01  0.215E-01  0.251E-01  0.215E-01  0.251E-01  0.215E-01
  13.050  0.781E-01  0.661E-01  0.260E-01  0.220E-01  0.260E-01  0.220E-01  0.260E-01  0.220E-01
  13.100  0.811E-01  0.676E-01  0.270E-01  0.225E-01  0.270E-01  0.225E-01  0.270E-01  0.225E-01
  13.150  0.880E-01  0.690E-01  0.293E-01  0.230E-01  0.293E-01  0.230E-01  0.293E-01  0.230E-01
  13.200  0.893E-01  0.709E-01  0.298E-01  0.236E-01  0.298E-01  0.236E-01  0.298E-01  0.236E-01
  13.250  0.900E-01  0.727E-01  0.300E-01  0.242E-01  0.300E-01  0.242E-01  0.300E-01  0.242E-01
  13.300  0.907E-01  0.747E-01  0.302E-01  0.249E-01  0.302E-01  0.249E-01  0.302E-01  0.249E-01
  13.350  0.915E-01  0.766E-01  0.305E-01  0.255E-01  0.305E-01  0.255E-01  0.305E-01  0.255E-01
  13.400  0.917E-01  0.786E-01  0.306E-01  0.262E-01  0.306E-01  0.262E-01  0.306E-01  0.262E-01
  13.450  0.914E-01  0.810E-01  0.305E-01  0.270E-01  0.305E-01  0.270E-01  0.305E-01  0.270E-01
  13.500  0.917E-01  0.840E-01  0.306E-01  0.280E-01  0.306E-01  0.280E-01  0.306E-01  0.280E-01
  13.550  0.906E-01  0.875E-01  0.302E-01  0.292E-01  0.302E-01  0.292E-01  0.302E-01  0.292E-01
  13.600  0.892E-01  0.886E-01  0.297E-01  0.295E-01  0.297E-01  0.295E-01  0.297E-01  0.295E-01
  13.650  0.889E-01  0.894E-01  0.296E-01  0.298E-01  0.296E-01  0.298E-01  0.296E-01  0.298E-01
  13.700  0.890E-01  0.897E-01  0.297E-01  0.299E-01  0.297E-01  0.299E-01  0.297E-01  0.299E-01
  13.750  0.889E-01  0.906E-01  0.296E-01  0.302E-01  0.296E-01  0.302E-01  0.296E-01  0.302E-01
  13.800  0.895E-01  0.910E-01  0.298E-01  0.303E-01  0.298E-01  0.303E-01  0.298E-01  0.303E-01
  13.850  0.907E-01  0.911E-01  0.302E-01  0.304E-01  0.302E-01  0.304E-01  0.302E-01  0.304E-01
  13.900  0.919E-01  0.907E-01  0.306E-01  0.302E-01  0.306E-01  0.302E-01  0.306E-01  0.302E-01
  13.950  0.948E-01  0.911E-01  0.316E-01  0.304E-01  0.316E-01  0.304E-01  0.316E-01  0.304E-01
  14.000  0.100E+00  0.906E-01  0.334E-01  0.302E-01  0.334E-01  0.302E-01  0.334E-01  0.302E-01
  14.050  0.107E+00  0.901E-01  0.358E-01  0.300E-01  0.358E-01  0.300E-01  0.358E-01  0.300E-01
  14.100  0.106E+00  0.893E-01  0.354E-01  0.298E-01  0.354E-01  0.298E-01  0.354E-01  0.298E-01
  14.150  0.108E+00  0.895E-01  0.360E-01  0.298E-01  0.360E-01  0.298E-01  0.360E-01  0.298E-01
  14.200  0.104E+00  0.879E-01  0.345E-01  0.293E-01  0.345E-01  0.293E-01  0.345E-01  0.293E-01
  14.250  0.100E+00  0.869E-01  0.334E-01  0.290E-01  0.334E-01  0.290E-01  0.334E-01  0.290E-01
  14.300  0.848E-01  0.873E-01  0.283E-01  0.291E-01  0.283E-01  0.291E-01  0.283E-01  0.291E-01
  14.350  0.989E-01  0.891E-01  0.330E-01  0.297E-01  0.330E-01  0.297E-01  0.330E-01  0.297E-01
  14.400  0.118E+00  0.919E-01  0.392E-01  0.306E-01  0.392E-01  0.306E-01  0.392E-01  0.306E-01
  14.450  0.117E+00  0.977E-01  0.389E-01  0.326E-01  0.389E-01  0.326E-01  0.389E-01  0.326E-01
  14.500  0.119E+00  0.107E+00  0.397E-01  0.358E-01  0.397E-01  0.358E-01  0.397E-01  0.358E-01
  14.550  0.116E+00  0.106E+00  0.388E-01  0.355E-01  0.388E-01  0.355E-01  0.388E-01  0.355E-01
  14.600  0.110E+00  0.106E+00  0.368E-01  0.355E-01  0.368E-01  0.355E-01  0.368E-01  0.355E-01
  14.650  0.105E+00  0.111E+00  0.349E-01  0.370E-01  0.349E-01  0.370E-01  0.349E-01  0.370E-01
  14.700  0.115E+00  0.119E+00  0.382E-01  0.397E-01  0.382E-01  0.397E-01  0.382E-01  0.397E-01
  14.750  0.148E+00  0.946E-01  0.495E-01  0.315E-01  0.495E-01  0.315E-01  0.495E-01  0.315E-01
  14.800  0.151E+00  0.816E-01  0.504E-01  0.272E-01  0.504E-01  0.272E-01  0.504E-01  0.272E-01
  14.850  0.155E+00  0.977E-01  0.518E-01  0.326E-01  0.518E-01  0.326E-01  0.518E-01  0.326E-01
  14.900  0.157E+00  0.113E+00  0.524E-01  0.377E-01  0.524E-01  0.377E-01  0.524E-01  0.377E-01
  14.950  0.157E+00  0.120E+00  0.524E-01  0.401E-01  0.524E-01  0.401E-01  0.524E-01  0.401E-01
  15.000  0.158E+00  0.121E+00  0.527E-01  0.405E-01  0.527E-01  0.405E-01  0.527E-01  0.405E-01
  15.050  0.160E+00  0.122E+00  0.533E-01  0.407E-01  0.533E-01  0.407E-01  0.533E-01  0.407E-01
  15.100  0.145E+00  0.127E+00  0.483E-01  0.424E-01  0.483E-01  0.424E-01  0.483E-01  0.424E-01
  15.150  0.141E+00  0.129E+00  0.470E-01  0.432E-01  0.470E-01  0.432E-01  0.470E-01  0.432E-01
  15.200  0.143E+00  0.124E+00  0.476E-01  0.412E-01  0.476E-01  0.412E-01  0.476E-01  0.412E-01
  15.250  0.150E+00  0.118E+00  0.498E-01  0.395E-01  0.498E-01  0.395E-01  0.498E-01  0.395E-01
  15.300  0.167E+00  0.110E+00  0.555E-01  0.367E-01  0.555E-01  0.367E-01  0.555E-01  0.367E-01
  15.350  0.183E+00  0.123E+00  0.610E-01  0.411E-01  0.610E-01  0.411E-01  0.610E-01  0.411E-01
  15.400  0.153E+00  0.165E+00  0.511E-01  0.550E-01  0.511E-01  0.550E-01  0.511E-01  0.550E-01
  15.450  0.141E+00  0.169E+00  0.468E-01  0.563E-01  0.468E-01  0.563E-01  0.468E-01  0.563E-01
  15.500  0.139E+00  0.172E+00  0.464E-01  0.573E-01  0.464E-01  0.573E-01  0.464E-01  0.573E-01
  15.550  0.117E+00  0.174E+00  0.390E-01  0.580E-01  0.390E-01  0.580E-01  0.390E-01  0.580E-01
  15.600  0.121E+00  0.171E+00  0.403E-01  0.571E-01  0.403E-01  0.571E-01  0.403E-01  0.571E-01
  15.650  0.104E+00  0.174E+00  0.348E-01  0.579E-01  0.348E-01  0.579E-01  0.348E-01  0.579E-01
  15.700  0.105E+00  0.176E+00  0.349E-01  0.587E-01  0.349E-01  0.587E-01  0.349E-01  0.587E-01
  15.750  0.113E+00  0.170E+00  0.377E-01  0.568E-01  0.377E-01  0.568E-01  0.377E-01  0.568E-01
  15.800  0.118E+00  0.161E+00  0.395E-01  0.537E-01  0.395E-01  0.537E-01  0.395E-01  0.537E-01
  15.850  0.946E-01  0.164E+00  0.315E-01  0.545E-01  0.315E-01  0.545E-01  0.315E-01  0.545E-01
  15.900  0.899E-01  0.172E+00  0.300E-01  0.572E-01  0.300E-01  0.572E-01  0.300E-01  0.572E-01
  15.950  0.861E-01  0.188E+00  0.287E-01  0.628E-01  0.287E-01  0.628E-01  0.287E-01  0.628E-01
  16.000  0.836E-01  0.218E+00  0.279E-01  0.727E-01  0.279E-01  0.727E-01  0.279E-01  0.727E-01
  16.050  0.814E-01  0.177E+00  0.271E-01  0.589E-01  0.271E-01  0.589E-01  0.271E-01  0.589E-01
  16.100  0.804E-01  0.159E+00  0.268E-01  0.530E-01  0.268E-01  0.530E-01  0.268E-01  0.530E-01
  16.150  0.799E-01  0.150E+00  0.266E-01  0.499E-01  0.266E-01  0.499E-01  0.266E-01  0.499E-01
  16.200  0.805E-01  0.148E+00  0.268E-01  0.493E-01  0.268E-01  0.493E-01  0.268E-01  0.493E-01
  16.250  0.816E-01  0.139E+00  0.272E-01  0.464E-01  0.272E-01  0.464E-01  0.272E-01  0.464E-01
  16.300  0.798E-01  0.121E+00  0.266E-01  0.404E-01  0.266E-01  0.404E-01  0.266E-01  0.404E-01
  16.350  0.775E-01  0.124E+00  0.258E-01  0.413E-01  0.258E-01  0.413E-01  0.258E-01  0.413E-01
  16.400  0.705E-01  0.148E+00  0.235E-01  0.493E-01  0.235E-01  0.493E-01  0.235E-01  0.493E-01
  16.450  0.621E-01  0.133E+00  0.207E-01  0.445E-01  0.207E-01  0.445E-01  0.207E-01  0.445E-01
  16.500  0.547E-01  0.115E+00  0.182E-01  0.384E-01  0.182E-01  0.384E-01  0.182E-01  0.384E-01
  16.550  0.484E-01  0.106E+00  0.161E-01  0.353E-01  0.161E-01  0.353E-01  0.161E-01  0.353E-01
  16.600  0.433E-01  0.100E+00  0.144E-01  0.334E-01  0.144E-01  0.334E-01  0.144E-01  0.334E-01
  16.650  0.387E-01  0.962E-01  0.129E-01  0.321E-01  0.129E-01  0.321E-01  0.129E-01  0.321E-01
  16.700  0.350E-01  0.934E-01  0.117E-01  0.311E-01  0.117E-01  0.311E-01  0.117E-01  0.311E-01
  16.750  0.319E-01  0.907E-01  0.106E-01  0.302E-01  0.106E-01  0.302E-01  0.106E-01  0.302E-01
  16.800  0.293E-01  0.882E-01  0.975E-02  0.294E-01  0.975E-02  0.294E-01  0.975E-02  0.294E-01
  16.850  0.267E-01  0.861E-01  0.890E-02  0.287E-01  0.890E-02  0.287E-01  0.890E-02  0.287E-01
  16.900  0.249E-01  0.842E-01  0.830E-02  0.281E-01  0.830E-02  0.281E-01  0.830E-02  0.281E-01
  16.950  0.234E-01  0.829E-01  0.781E-02  0.276E-01  0.781E-02  0.276E-01  0.781E-02  0.276E-01
  17.000  0.225E-01  0.775E-01  0.751E-02  0.258E-01  0.751E-02  0.258E-01  0.751E-02  0.258E-01
  17.050  0.222E-01  0.713E-01  0.741E-02  0.238E-01  0.741E-02  0.238E-01  0.741E-02  0.238E-01
  17.100  0.213E-01  0.630E-01  0.710E-02  0.210E-01  0.710E-02  0.210E-01  0.710E-02  0.210E-01
  17.150  0.203E-01  0.569E-01  0.676E-02  0.190E-01  0.676E-02  0.190E-01  0.676E-02  0.190E-01
  17.200  0.194E-01  0.505E-01  0.646E-02  0.168E-01  0.646E-02  0.168E-01  0.646E-02  0.168E-01
  17.250  0.184E-01  0.444E-01  0.613E-02  0.148E-01  0.613E-02  0.148E-01  0.613E-02  0.148E-01
  17.300  0.186E-01  0.395E-01  0.620E-02  0.132E-01  0.620E-02  0.132E-01  0.620E-02  0.132E-01
  17.350  0.195E-01  0.352E-01  0.651E-02  0.117E-01  0.651E-02  0.117E-01  0.651E-02  0.117E-01
  17.400  0.213E-01  0.315E-01  0.709E-02  0.105E-01  0.709E-02  0.105E-01  0.709E-02  0.105E-01
  17.450  0.234E-01  0.291E-01  0.780E-02  0.971E-02  0.780E-02  0.971E-02  0.780E-02  0.971E-02
  17.500  0.254E-01  0.273E-01  0.848E-02  0.909E-02  0.848E-02  0.909E-02  0.848E-02  0.909E-02
  17.550  0.274E-01  0.254E-01  0.913E-02  0.848E-02  0.913E-02  0.848E-02  0.913E-02  0.848E-02
  17.600  0.290E-01  0.237E-01  0.965E-02  0.790E-02  0.965E-02  0.790E-02  0.965E-02  0.790E-02
  17.650  0.315E-01  0.225E-01  0.105E-01  0.750E-02  0.105E-01  0.750E-02  0.105E-01  0.750E-02
  17.700  0.334E-01  0.212E-01  0.111E-01  0.705E-02  0.111E-01  0.705E-02  0.111E-01  0.705E-02
  17.750  0.346E-01  0.202E-01  0.115E-01  0.672E-02  0.115E-01  0.672E-02  0.115E-01  0.672E-02
  17.800  0.359E-01  0.197E-01  0.120E-01  0.657E-02  0.120E-01  0.657E-02  0.120E-01  0.657E-02
  17.850  0.369E-01  0.199E-01  0.123E-01  0.664E-02  0.123E-01  0.664E-02  0.123E-01  0.664E-02
  17.900  0.380E-01  0.202E-01  0.127E-01  0.675E-02  0.127E-01  0.675E-02  0.127E-01  0.675E-02
  17.950  0.393E-01  0.203E-01  0.131E-01  0.678E-02  0.131E-01  0.678E-02  0.131E-01  0.678E-02
  18.000  0.405E-01  0.190E-01  0.135E-01  0.635E-02  0.135E-01  0.635E-02  0.135E-01  0.635E-02
  18.050  0.417E-01  0.192E-01  0.139E-01  0.640E-02  0.139E-01  0.640E-02  0.139E-01  0.640E-02
  18.100  0.428E-01  0.192E-01  0.143E-01  0.639E-02  0.143E-01  0.639E-02  0.143E-01  0.639E-02
  18.150  0.438E-01  0.205E-01  0.146E-01  0.684E-02  0.146E-01  0.684E-02  0.146E-01  0.684E-02
  18.200  0.448E-01  0.218E-01  0.149E-01  0.728E-02  0.149E-01  0.728E-02  0.149E-01  0.728E-02
  18.250  0.458E-01  0.228E-01  0.153E-01  0.759E-02  0.153E-01  0.759E-02  0.153E-01  0.759E-02
  18.300  0.468E-01  0.237E-01  0.156E-01  0.791E-02  0.156E-01  0.791E-02  0.156E-01  0.791E-02
  18.350  0.477E-01  0.255E-01  0.159E-01  0.851E-02  0.159E-01  0.851E-02  0.159E-01  0.851E-02
  18.400  0.488E-01  0.273E-01  0.163E-01  0.910E-02  0.163E-01  0.910E-02  0.163E-01  0.910E-02
  18.450  0.496E-01  0.290E-01  0.165E-01  0.965E-02  0.165E-01  0.965E-02  0.165E-01  0.965E-02
  18.500  0.504E-01  0.307E-01  0.168E-01  0.102E-01  0.168E-01  0.102E-01  0.168E-01  0.102E-01
  18.550  0.513E-01  0.323E-01  0.171E-01  0.108E-01  0.171E-01  0.108E-01  0.171E-01  0.108E-01
  18.600  0.521E-01  0.334E-01  0.174E-01  0.111E-01  0.174E-01  0.111E-01  0.174E-01  0.111E-01
  18.650  0.529E-01  0.349E-01  0.176E-01  0.116E-01  0.176E-01  0.116E-01  0.176E-01  0.116E-01
  18.700  0.536E-01  0.364E-01  0.179E-01  0.121E-01  0.179E-01  0.121E-01  0.179E-01  0.121E-01
  18.750  0.544E-01  0.377E-01  0.181E-01  0.126E-01  0.181E-01  0.126E-01  0.181E-01  0.126E-01
  18.800  0.550E-01  0.392E-01  0.183E-01  0.131E-01  0.183E-01  0.131E-01  0.183E-01  0.131E-01
  18.850  0.557E-01  0.402E-01  0.186E-01  0.134E-01  0.186E-01  0.134E-01  0.186E-01  0.134E-01
  18.900  0.564E-01  0.414E-01  0.188E-01  0.138E-01  0.188E-01  0.138E-01  0.188E-01  0.138E-01
  18.950  0.570E-01  0.426E-01  0.190E-01  0.142E-01  0.190E-01  0.142E-01  0.190E-01  0.142E-01
  19.000  0.576E-01  0.437E-01  0.192E-01  0.146E-01  0.192E-01  0.146E-01  0.192E-01  0.146E-01
  19.050  0.582E-01  0.449E-01  0.194E-01  0.150E-01  0.194E-01  0.150E-01  0.194E-01  0.150E-01
  19.100  0.590E-01  0.459E-01  0.197E-01  0.153E-01  0.197E-01  0.153E-01  0.197E-01  0.153E-01
  19.150  0.595E-01  0.468E-01  0.198E-01  0.156E-01  0.198E-01  0.156E-01  0.198E-01  0.156E-01
  19.200  0.600E-01  0.480E-01  0.200E-01  0.160E-01  0.200E-01  0.160E-01  0.200E-01  0.160E-01
  19.250  0.605E-01  0.490E-01  0.202E-01  0.163E-01  0.202E-01  0.163E-01  0.202E-01  0.163E-01
  19.300  0.610E-01  0.500E-01  0.203E-01  0.167E-01  0.203E-01  0.167E-01  0.203E-01  0.167E-01
  19.350  0.616E-01  0.509E-01  0.205E-01  0.170E-01  0.205E-01  0.170E-01  0.205E-01  0.170E-01
  19.400  0.620E-01  0.517E-01  0.207E-01  0.172E-01  0.207E-01  0.172E-01  0.207E-01  0.172E-01
  19.450  0.625E-01  0.523E-01  0.208E-01  0.174E-01  0.208E-01  0.174E-01  0.208E-01  0.174E-01
  19.500  0.630E-01  0.533E-01  0.210E-01  0.178E-01  0.210E-01  0.178E-01  0.210E-01  0.178E-01
  19.550  0.636E-01  0.541E-01  0.212E-01  0.180E-01  0.212E-01  0.180E-01  0.212E-01  0.180E-01
  19.600  0.641E-01  0.550E-01  0.214E-01  0.183E-01  0.214E-01  0.183E-01  0.214E-01  0.183E-01
  19.650  0.645E-01  0.558E-01  0.215E-01  0.186E-01  0.215E-01  0.186E-01  0.215E-01  0.186E-01
  19.700  0.650E-01  0.565E-01  0.217E-01  0.188E-01  0.217E-01  0.188E-01  0.217E-01  0.188E-01
  19.750  0.655E-01  0.573E-01  0.218E-01  0.191E-01  0.218E-01  0.191E-01  0.218E-01  0.191E-01
  19.800  0.660E-01  0.581E-01  0.220E-01  0.194E-01  0.220E-01  0.194E-01  0.220E-01  0.194E-01
  19.850  0.665E-01  0.590E-01  0.222E-01  0.197E-01  0.222E-01  0.197E-01  0.222E-01  0.197E-01
  19.900  0.671E-01  0.596E-01  0.224E-01  0.199E-01  0.224E-01  0.199E-01  0.224E-01  0.199E-01
  19.950  0.676E-01  0.603E-01  0.225E-01  0.201E-01  0.225E-01  0.201E-01  0.225E-01  0.201E-01
  20.000  0.682E-01  0.612E-01  0.227E-01  0.204E-01  0.227E-01  0.204E-01  0.227E-01  0.204E-01
  20.050  0.689E-01  0.621E-01  0.230E-01  0.207E-01  0.230E-01  0.207E-01  0.230E-01  0.207E-01
  20.100  0.698E-01  0.632E-01  0.233E-01  0.211E-01  0.233E-01  0.211E-01  0.233E-01  0.211E-01
  20.150  0.706E-01  0.645E-01  0.235E-01  0.215E-01  0.235E-01  0.215E-01  0.235E-01  0.215E-01
  20.200  0.719E-01  0.657E-01  0.240E-01  0.219E-01  0.240E-01  0.219E-01  0.240E-01  0.219E-01
  20.250  0.736E-01  0.670E-01  0.245E-01  0.223E-01  0.245E-01  0.223E-01  0.245E-01  0.223E-01
  20.300  0.741E-01  0.675E-01  0.247E-01  0.225E-01  0.247E-01  0.225E-01  0.247E-01  0.225E-01
  20.350  0.740E-01  0.677E-01  0.247E-01  0.226E-01  0.247E-01  0.226E-01  0.247E-01  0.226E-01
  20.400  0.735E-01  0.676E-01  0.245E-01  0.225E-01  0.245E-01  0.225E-01  0.245E-01  0.225E-01
  20.450  0.735E-01  0.676E-01  0.245E-01  0.225E-01  0.245E-01  0.225E-01  0.245E-01  0.225E-01
  20.500  0.736E-01  0.679E-01  0.245E-01  0.226E-01  0.245E-01  0.226E-01  0.245E-01  0.226E-01
  20.550  0.738E-01  0.679E-01  0.246E-01  0.226E-01  0.246E-01  0.226E-01  0.246E-01  0.226E-01
  20.600  0.735E-01  0.681E-01  0.245E-01  0.227E-01  0.245E-01  0.227E-01  0.245E-01  0.227E-01
  20.650  0.731E-01  0.684E-01  0.244E-01  0.228E-01  0.244E-01  0.228E-01  0.244E-01  0.228E-01
  20.700  0.727E-01  0.683E-01  0.242E-01  0.228E-01  0.242E-01  0.228E-01  0.242E-01  0.228E-01
  20.750  0.723E-01  0.682E-01  0.241E-01  0.227E-01  0.241E-01  0.227E-01  0.241E-01  0.227E-01
  20.800  0.723E-01  0.682E-01  0.241E-01  0.227E-01  0.241E-01  0.227E-01  0.241E-01  0.227E-01
  20.850  0.721E-01  0.682E-01  0.240E-01  0.227E-01  0.240E-01  0.227E-01  0.240E-01  0.227E-01
  20.900  0.718E-01  0.682E-01  0.239E-01  0.227E-01  0.239E-01  0.227E-01  0.239E-01  0.227E-01
  20.950  0.716E-01  0.681E-01  0.239E-01  0.227E-01  0.239E-01  0.227E-01  0.239E-01  0.227E-01
  21.000  0.715E-01  0.682E-01  0.238E-01  0.227E-01  0.238E-01  0.227E-01  0.238E-01  0.227E-01
  21.050  0.711E-01  0.679E-01  0.237E-01  0.226E-01  0.237E-01  0.226E-01  0.237E-01  0.226E-01
  21.100  0.707E-01  0.678E-01  0.236E-01  0.226E-01  0.236E-01  0.226E-01  0.236E-01  0.226E-01
  21.150  0.703E-01  0.678E-01  0.234E-01  0.226E-01  0.234E-01  0.226E-01  0.234E-01  0.226E-01
  21.200  0.700E-01  0.674E-01  0.233E-01  0.225E-01  0.233E-01  0.225E-01  0.233E-01  0.225E-01
  21.250  0.697E-01  0.673E-01  0.232E-01  0.224E-01  0.232E-01  0.224E-01  0.232E-01  0.224E-01
  21.300  0.692E-01  0.671E-01  0.231E-01  0.224E-01  0.231E-01  0.224E-01  0.231E-01  0.224E-01
  21.350  0.686E-01  0.669E-01  0.229E-01  0.223E-01  0.229E-01  0.223E-01  0.229E-01  0.223E-01
  21.400  0.681E-01  0.666E-01  0.227E-01  0.222E-01  0.227E-01  0.222E-01  0.227E-01  0.222E-01
  21.450  0.679E-01  0.663E-01  0.226E-01  0.221E-01  0.226E-01  0.221E-01  0.226E-01  0.221E-01
  21.500  0.676E-01  0.661E-01  0.225E-01  0.220E-01  0.225E-01  0.220E-01  0.225E-01  0.220E-01
  21.550  0.670E-01  0.660E-01  0.223E-01  0.220E-01  0.223E-01  0.220E-01  0.223E-01  0.220E-01
  21.600  0.664E-01  0.655E-01  0.221E-01  0.218E-01  0.221E-01  0.218E-01  0.221E-01  0.218E-01
  21.650  0.659E-01  0.653E-01  0.220E-01  0.218E-01  0.220E-01  0.218E-01  0.220E-01  0.218E-01
  21.700  0.653E-01  0.649E-01  0.218E-01  0.216E-01  0.218E-01  0.216E-01  0.218E-01  0.216E-01
  21.750  0.649E-01  0.644E-01  0.216E-01  0.215E-01  0.216E-01  0.215E-01  0.216E-01  0.215E-01
  21.800  0.644E-01  0.641E-01  0.215E-01  0.214E-01  0.215E-01  0.214E-01  0.215E-01  0.214E-01
  21.850  0.639E-01  0.635E-01  0.213E-01  0.212E-01  0.213E-01  0.212E-01  0.213E-01  0.212E-01
  21.900  0.635E-01  0.631E-01  0.212E-01  0.210E-01  0.212E-01  0.210E-01  0.212E-01  0.210E-01
  21.950  0.628E-01  0.626E-01  0.209E-01  0.209E-01  0.209E-01  0.209E-01  0.209E-01  0.209E-01
  22.000  0.623E-01  0.623E-01  0.208E-01  0.208E-01  0.208E-01  0.208E-01  0.208E-01  0.208E-01
  22.050  0.615E-01  0.619E-01  0.205E-01  0.206E-01  0.205E-01  0.206E-01  0.205E-01  0.206E-01
  22.100  0.606E-01  0.615E-01  0.202E-01  0.205E-01  0.202E-01  0.205E-01  0.202E-01  0.205E-01
  22.150  0.601E-01  0.610E-01  0.200E-01  0.203E-01  0.200E-01  0.203E-01  0.200E-01  0.203E-01
  22.200  0.594E-01  0.606E-01  0.198E-01  0.202E-01  0.198E-01  0.202E-01  0.198E-01  0.202E-01
  22.250  0.589E-01  0.600E-01  0.196E-01  0.200E-01  0.196E-01  0.200E-01  0.196E-01  0.200E-01
  22.300  0.582E-01  0.594E-01  0.194E-01  0.198E-01  0.194E-01  0.198E-01  0.194E-01  0.198E-01
  22.350  0.575E-01  0.586E-01  0.192E-01  0.195E-01  0.192E-01  0.195E-01  0.192E-01  0.195E-01
  22.400  0.569E-01  0.579E-01  0.190E-01  0.193E-01  0.190E-01  0.193E-01  0.190E-01  0.193E-01
  22.450  0.561E-01  0.574E-01  0.187E-01  0.191E-01  0.187E-01  0.191E-01  0.187E-01  0.191E-01
  22.500  0.553E-01  0.568E-01  0.184E-01  0.189E-01  0.184E-01  0.189E-01  0.184E-01  0.189E-01
  22.550  0.545E-01  0.562E-01  0.182E-01  0.187E-01  0.182E-01  0.187E-01  0.182E-01  0.187E-01
  22.600  0.539E-01  0.556E-01  0.180E-01  0.185E-01  0.180E-01  0.185E-01  0.180E-01  0.185E-01
  22.650  0.532E-01  0.550E-01  0.177E-01  0.183E-01  0.177E-01  0.183E-01  0.177E-01  0.183E-01
  22.700  0.525E-01  0.544E-01  0.175E-01  0.181E-01  0.175E-01  0.181E-01  0.175E-01  0.181E-01
  22.750  0.518E-01  0.534E-01  0.173E-01  0.178E-01  0.173E-01  0.178E-01  0.173E-01  0.178E-01
  22.800  0.509E-01  0.528E-01  0.170E-01  0.176E-01  0.170E-01  0.176E-01  0.170E-01  0.176E-01
  22.850  0.500E-01  0.522E-01  0.167E-01  0.174E-01  0.167E-01  0.174E-01  0.167E-01  0.174E-01
  22.900  0.491E-01  0.515E-01  0.164E-01  0.172E-01  0.164E-01  0.172E-01  0.164E-01  0.172E-01
  22.950  0.482E-01  0.509E-01  0.161E-01  0.170E-01  0.161E-01  0.170E-01  0.161E-01  0.170E-01
  23.000  0.472E-01  0.501E-01  0.157E-01  0.167E-01  0.157E-01  0.167E-01  0.157E-01  0.167E-01
  23.050  0.463E-01  0.494E-01  0.154E-01  0.165E-01  0.154E-01  0.165E-01  0.154E-01  0.165E-01
  23.100  0.457E-01  0.484E-01  0.152E-01  0.161E-01  0.152E-01  0.161E-01  0.152E-01  0.161E-01
  23.150  0.450E-01  0.476E-01  0.150E-01  0.159E-01  0.150E-01  0.159E-01  0.150E-01  0.159E-01
  23.200  0.443E-01  0.468E-01  0.148E-01  0.156E-01  0.148E-01  0.156E-01  0.148E-01  0.156E-01
  23.250  0.435E-01  0.459E-01  0.145E-01  0.153E-01  0.145E-01  0.153E-01  0.145E-01  0.153E-01
  23.300  0.426E-01  0.451E-01  0.142E-01  0.150E-01  0.142E-01  0.150E-01  0.142E-01  0.150E-01
  23.350  0.418E-01  0.443E-01  0.139E-01  0.148E-01  0.139E-01  0.148E-01  0.139E-01  0.148E-01
  23.400  0.411E-01  0.437E-01  0.137E-01  0.146E-01  0.137E-01  0.146E-01  0.137E-01  0.146E-01
  23.450  0.404E-01  0.431E-01  0.135E-01  0.144E-01  0.135E-01  0.144E-01  0.135E-01  0.144E-01
  23.500  0.400E-01  0.423E-01  0.133E-01  0.141E-01  0.133E-01  0.141E-01  0.133E-01  0.141E-01
  23.550  0.395E-01  0.415E-01  0.132E-01  0.138E-01  0.132E-01  0.138E-01  0.132E-01  0.138E-01
  23.600  0.417E-01  0.407E-01  0.139E-01  0.136E-01  0.139E-01  0.136E-01  0.139E-01  0.136E-01
  23.650  0.369E-01  0.399E-01  0.123E-01  0.133E-01  0.123E-01  0.133E-01  0.123E-01  0.133E-01
  23.700  0.340E-01  0.392E-01  0.113E-01  0.131E-01  0.113E-01  0.131E-01  0.113E-01  0.131E-01
  23.750  0.311E-01  0.388E-01  0.104E-01  0.129E-01  0.104E-01  0.129E-01  0.104E-01  0.129E-01
  23.800  0.296E-01  0.382E-01  0.987E-02  0.127E-01  0.987E-02  0.127E-01  0.987E-02  0.127E-01
  23.850  0.275E-01  0.391E-01  0.918E-02  0.130E-01  0.918E-02  0.130E-01  0.918E-02  0.130E-01
  23.900  0.257E-01  0.352E-01  0.858E-02  0.117E-01  0.858E-02  0.117E-01  0.858E-02  0.117E-01
  23.950  0.241E-01  0.326E-01  0.802E-02  0.109E-01  0.802E-02  0.109E-01  0.802E-02  0.109E-01
  24.000  0.221E-01  0.298E-01  0.736E-02  0.993E-02  0.736E-02  0.993E-02  0.736E-02  0.993E-02
  24.050  0.205E-01  0.285E-01  0.683E-02  0.950E-02  0.683E-02  0.950E-02  0.683E-02  0.950E-02
  24.100  0.192E-01  0.263E-01  0.639E-02  0.878E-02  0.639E-02  0.878E-02  0.639E-02  0.878E-02
  24.150  0.178E-01  0.246E-01  0.595E-02  0.819E-02  0.595E-02  0.819E-02  0.595E-02  0.819E-02
  24.200  0.164E-01  0.229E-01  0.545E-02  0.763E-02  0.545E-02  0.763E-02  0.545E-02  0.763E-02
  24.250  0.152E-01  0.209E-01  0.508E-02  0.698E-02  0.508E-02  0.698E-02  0.508E-02  0.698E-02
  24.300  0.141E-01  0.195E-01  0.471E-02  0.650E-02  0.471E-02  0.650E-02  0.471E-02  0.650E-02
  24.350  0.131E-01  0.183E-01  0.436E-02  0.610E-02  0.436E-02  0.610E-02  0.436E-02  0.610E-02
  24.400  0.121E-01  0.168E-01  0.402E-02  0.560E-02  0.402E-02  0.560E-02  0.402E-02  0.560E-02
  24.450  0.111E-01  0.155E-01  0.371E-02  0.518E-02  0.371E-02  0.518E-02  0.371E-02  0.518E-02
  24.500  0.106E-01  0.144E-01  0.353E-02  0.481E-02  0.353E-02  0.481E-02  0.353E-02  0.481E-02
  24.550  0.100E-01  0.134E-01  0.334E-02  0.445E-02  0.334E-02  0.445E-02  0.334E-02  0.445E-02
  24.600  0.933E-02  0.124E-01  0.311E-02  0.412E-02  0.311E-02  0.412E-02  0.311E-02  0.412E-02
  24.650  0.833E-02  0.114E-01  0.278E-02  0.379E-02  0.278E-02  0.379E-02  0.278E-02  0.379E-02
  24.700  0.745E-02  0.106E-01  0.248E-02  0.354E-02  0.248E-02  0.354E-02  0.248E-02  0.354E-02
  24.750  0.664E-02  0.104E-01  0.221E-02  0.347E-02  0.221E-02  0.347E-02  0.221E-02  0.347E-02
  24.800  0.589E-02  0.925E-02  0.196E-02  0.308E-02  0.196E-02  0.308E-02  0.196E-02  0.308E-02
  24.850  0.518E-02  0.855E-02  0.173E-02  0.285E-02  0.173E-02  0.285E-02  0.173E-02  0.285E-02
  24.900  0.452E-02  0.762E-02  0.151E-02  0.254E-02  0.151E-02  0.254E-02  0.151E-02  0.254E-02
  24.950  0.391E-02  0.680E-02  0.130E-02  0.227E-02  0.130E-02  0.227E-02  0.130E-02  0.227E-02
  25.000  0.335E-02  0.603E-02  0.112E-02  0.201E-02  0.112E-02  0.201E-02  0.112E-02  0.201E-02
  25.050  0.284E-02  0.530E-02  0.945E-03  0.177E-02  0.945E-03  0.177E-02  0.945E-03  0.177E-02
