# E (eV)  ldosup(E)  ldosdw(E) pdosup(E)  pdosdw(E)  pdosup(E)  pdosdw(E)  pdosup(E)  pdosdw(E) 
   5.000  0.000E+00  0.000E+00  0.000E+00  0.000E+00  0.000E+00  0.000E+00  0.000E+00  0.000E+00
   5.050  0.000E+00  0.000E+00  0.000E+00  0.000E+00  0.000E+00  0.000E+00  0.000E+00  0.000E+00
   5.100  0.000E+00  0.000E+00  0.000E+00  0.000E+00  0.000E+00  0.000E+00  0.000E+00  0.000E+00
   5.150  0.000E+00  0.000E+00  0.000E+00  0.000E+00  0.000E+00  0.000E+00  0.000E+00  0.000E+00
   5.200  0.000E+00  0.000E+00  0.000E+00  0.000E+00  0.000E+00  0.000E+00  0.000E+00  0.000E+00
   5.250  0.000E+00  0.000E+00  0.000E+00  0.000E+00  0.000E+00  0.000E+00  0.000E+00  0.000E+00
   5.300  0.000E+00  0.000E+00  0.000E+00  0.000E+00  0.000E+00  0.000E+00  0.000E+00  0.000E+00
   5.350  0.000E+00  0.000E+00  0.000E+00  0.000E+00  0.000E+00  0.000E+00  0.000E+00  0.000E+00
   5.400  0.000E+00  0.000E+00  0.000E+00  0.000E+00  0.000E+00  0.000E+00  0.000E+00  0.000E+00
   5.450  0.000E+00  0.000E+00  0.000E+00  0.000E+00  0.000E+00  0.000E+00  0.000E+00  0.000E+00
   5.500  0.000E+00  0.000E+00  0.000E+00  0.000E+00  0.000E+00  0.000E+00  0.000E+00  0.000E+00
   5.550  0.000E+00  0.000E+00  0.000E+00  0.000E+00  0.000E+00  0.000E+00  0.000E+00  0.000E+00
   5.600  0.000E+00  0.000E+00  0.000E+00  0.000E+00  0.000E+00  0.000E+00  0.000E+00  0.000E+00
   5.650  0.000E+00  0.000E+00  0.000E+00  0.000E+00  0.000E+00  0.000E+00  0.000E+00  0.000E+00
   5.700  0.000E+00  0.000E+00  0.000E+00  0.000E+00  0.000E+00  0.000E+00  0.000E+00  0.000E+00
   5.750  0.000E+00  0.000E+00  0.000E+00  0.000E+00  0.000E+00  0.000E+00  0.000E+00  0.000E+00
   5.800  0.000E+00  0.000E+00  0.000E+00  0.000E+00  0.000E+00  0.000E+00  0.000E+00  0.000E+00
   5.850  0.000E+00  0.000E+00  0.000E+00  0.000E+00  0.000E+00  0.000E+00  0.000E+00  0.000E+00
   5.900  0.000E+00  0.000E+00  0.000E+00  0.000E+00  0.000E+00  0.000E+00  0.000E+00  0.000E+00
   5.950  0.000E+00  0.000E+00  0.000E+00  0.000E+00  0.000E+00  0.000E+00  0.000E+00  0.000E+00
   6.000  0.000E+00  0.000E+00  0.000E+00  0.000E+00  0.000E+00  0.000E+00  0.000E+00  0.000E+00
   6.050  0.000E+00  0.000E+00  0.000E+00  0.000E+00  0.000E+00  0.000E+00  0.000E+00  0.000E+00
   6.100  0.000E+00  0.000E+00  0.000E+00  0.000E+00  0.000E+00  0.000E+00  0.000E+00  0.000E+00
   6.150  0.000E+00  0.000E+00  0.000E+00  0.000E+00  0.000E+00  0.000E+00  0.000E+00  0.000E+00
   6.200  0.000E+00  0.000E+00  0.000E+00  0.000E+00  0.000E+00  0.000E+00  0.000E+00  0.000E+00
   6.250  0.000E+00  0.000E+00  0.000E+00  0.000E+00  0.000E+00  0.000E+00  0.000E+00  0.000E+00
   6.300  0.000E+00  0.000E+00  0.000E+00  0.000E+00  0.000E+00  0.000E+00  0.000E+00  0.000E+00
   6.350  0.000E+00  0.000E+00  0.000E+00  0.000E+00  0.000E+00  0.000E+00  0.000E+00  0.000E+00
   6.400  0.000E+00  0.000E+00  0.000E+00  0.000E+00  0.000E+00  0.000E+00  0.000E+00  0.000E+00
   6.450  0.000E+00  0.000E+00  0.000E+00  0.000E+00  0.000E+00  0.000E+00  0.000E+00  0.000E+00
   6.500  0.000E+00  0.000E+00  0.000E+00  0.000E+00  0.000E+00  0.000E+00  0.000E+00  0.000E+00
   6.550  0.000E+00  0.000E+00  0.000E+00  0.000E+00  0.000E+00  0.000E+00  0.000E+00  0.000E+00
   6.600  0.000E+00  0.000E+00  0.000E+00  0.000E+00  0.000E+00  0.000E+00  0.000E+00  0.000E+00
   6.650  0.000E+00  0.000E+00  0.000E+00  0.000E+00  0.000E+00  0.000E+00  0.000E+00  0.000E+00
   6.700  0.000E+00  0.000E+00  0.000E+00  0.000E+00  0.000E+00  0.000E+00  0.000E+00  0.000E+00
   6.750  0.000E+00  0.000E+00  0.000E+00  0.000E+00  0.000E+00  0.000E+00  0.000E+00  0.000E+00
   6.800  0.000E+00  0.000E+00  0.000E+00  0.000E+00  0.000E+00  0.000E+00  0.000E+00  0.000E+00
   6.850  0.000E+00  0.000E+00  0.000E+00  0.000E+00  0.000E+00  0.000E+00  0.000E+00  0.000E+00
   6.900  0.000E+00  0.000E+00  0.000E+00  0.000E+00  0.000E+00  0.000E+00  0.000E+00  0.000E+00
   6.950  0.000E+00  0.000E+00  0.000E+00  0.000E+00  0.000E+00  0.000E+00  0.000E+00  0.000E+00
   7.000  0.000E+00  0.000E+00  0.000E+00  0.000E+00  0.000E+00  0.000E+00  0.000E+00  0.000E+00
   7.050  0.000E+00  0.000E+00  0.000E+00  0.000E+00  0.000E+00  0.000E+00  0.000E+00  0.000E+00
   7.100  0.000E+00  0.000E+00  0.000E+00  0.000E+00  0.000E+00  0.000E+00  0.000E+00  0.000E+00
   7.150  0.000E+00  0.000E+00  0.000E+00  0.000E+00  0.000E+00  0.000E+00  0.000E+00  0.000E+00
   7.200  0.000E+00  0.000E+00  0.000E+00  0.000E+00  0.000E+00  0.000E+00  0.000E+00  0.000E+00
   7.250  0.000E+00  0.000E+00  0.000E+00  0.000E+00  0.000E+00  0.000E+00  0.000E+00  0.000E+00
   7.300  0.000E+00  0.000E+00  0.000E+00  0.000E+00  0.000E+00  0.000E+00  0.000E+00  0.000E+00
   7.350  0.000E+00  0.000E+00  0.000E+00  0.000E+00  0.000E+00  0.000E+00  0.000E+00  0.000E+00
   7.400  0.000E+00  0.000E+00  0.000E+00  0.000E+00  0.000E+00  0.000E+00  0.000E+00  0.000E+00
   7.450  0.000E+00  0.000E+00  0.000E+00  0.000E+00  0.000E+00  0.000E+00  0.000E+00  0.000E+00
   7.500  0.000E+00  0.000E+00  0.000E+00  0.000E+00  0.000E+00  0.000E+00  0.000E+00  0.000E+00
   7.550  0.000E+00  0.000E+00  0.000E+00  0.000E+00  0.000E+00  0.000E+00  0.000E+00  0.000E+00
   7.600  0.000E+00  0.000E+00  0.000E+00  0.000E+00  0.000E+00  0.000E+00  0.000E+00  0.000E+00
   7.650  0.000E+00  0.000E+00  0.000E+00  0.000E+00  0.000E+00  0.000E+00  0.000E+00  0.000E+00
   7.700  0.000E+00  0.000E+00  0.000E+00  0.000E+00  0.000E+00  0.000E+00  0.000E+00  0.000E+00
   7.750  0.000E+00  0.000E+00  0.000E+00  0.000E+00  0.000E+00  0.000E+00  0.000E+00  0.000E+00
   7.800  0.000E+00  0.000E+00  0.000E+00  0.000E+00  0.000E+00  0.000E+00  0.000E+00  0.000E+00
   7.850  0.000E+00  0.000E+00  0.000E+00  0.000E+00  0.000E+00  0.000E+00  0.000E+00  0.000E+00
   7.900  0.000E+00  0.000E+00  0.000E+00  0.000E+00  0.000E+00  0.000E+00  0.000E+00  0.000E+00
   7.950  0.000E+00  0.000E+00  0.000E+00  0.000E+00  0.000E+00  0.000E+00  0.000E+00  0.000E+00
   8.000  0.000E+00  0.000E+00  0.000E+00  0.000E+00  0.000E+00  0.000E+00  0.000E+00  0.000E+00
   8.050  0.000E+00  0.000E+00  0.000E+00  0.000E+00  0.000E+00  0.000E+00  0.000E+00  0.000E+00
   8.100  0.000E+00  0.000E+00  0.000E+00  0.000E+00  0.000E+00  0.000E+00  0.000E+00  0.000E+00
   8.150  0.000E+00  0.000E+00  0.000E+00  0.000E+00  0.000E+00  0.000E+00  0.000E+00  0.000E+00
   8.200  0.000E+00  0.000E+00  0.000E+00  0.000E+00  0.000E+00  0.000E+00  0.000E+00  0.000E+00
   8.250  0.000E+00  0.000E+00  0.000E+00  0.000E+00  0.000E+00  0.000E+00  0.000E+00  0.000E+00
   8.300  0.000E+00  0.000E+00  0.000E+00  0.000E+00  0.000E+00  0.000E+00  0.000E+00  0.000E+00
   8.350  0.000E+00  0.000E+00  0.000E+00  0.000E+00  0.000E+00  0.000E+00  0.000E+00  0.000E+00
   8.400  0.000E+00  0.000E+00  0.000E+00  0.000E+00  0.000E+00  0.000E+00  0.000E+00  0.000E+00
   8.450  0.000E+00  0.000E+00  0.000E+00  0.000E+00  0.000E+00  0.000E+00  0.000E+00  0.000E+00
   8.500  0.000E+00  0.000E+00  0.000E+00  0.000E+00  0.000E+00  0.000E+00  0.000E+00  0.000E+00
   8.550  0.000E+00  0.000E+00  0.000E+00  0.000E+00  0.000E+00  0.000E+00  0.000E+00  0.000E+00
   8.600  0.000E+00  0.000E+00  0.000E+00  0.000E+00  0.000E+00  0.000E+00  0.000E+00  0.000E+00
   8.650  0.000E+00  0.000E+00  0.000E+00  0.000E+00  0.000E+00  0.000E+00  0.000E+00  0.000E+00
   8.700  0.000E+00 -0.466E-08  0.000E+00 -0.155E-08  0.000E+00 -0.155E-08  0.000E+00 -0.155E-08
   8.750  0.834E-08  0.308E-06  0.278E-08  0.103E-06  0.278E-08  0.103E-06  0.278E-08  0.103E-06
   8.800  0.345E-06  0.864E-06  0.115E-06  0.288E-06  0.115E-06  0.288E-06  0.115E-06  0.288E-06
   8.850  0.906E-06  0.172E-05  0.302E-06  0.572E-06  0.302E-06  0.572E-06  0.302E-06  0.572E-06
   8.900  0.173E-05  0.268E-05  0.577E-06  0.895E-06  0.577E-06  0.895E-06  0.577E-06  0.895E-06
   8.950  0.268E-05  0.399E-05  0.894E-06  0.133E-05  0.894E-06  0.133E-05  0.894E-06  0.133E-05
   9.000  0.392E-05  0.535E-05  0.131E-05  0.178E-05  0.131E-05  0.178E-05  0.131E-05  0.178E-05
   9.050  0.525E-05  0.698E-05  0.175E-05  0.233E-05  0.175E-05  0.233E-05  0.175E-05  0.233E-05
   9.100  0.685E-05  0.887E-05  0.228E-05  0.296E-05  0.228E-05  0.296E-05  0.228E-05  0.296E-05
   9.150  0.865E-05  0.108E-04  0.288E-05  0.359E-05  0.288E-05  0.359E-05  0.288E-05  0.359E-05
   9.200  0.105E-04  0.130E-04  0.350E-05  0.433E-05  0.350E-05  0.433E-05  0.350E-05  0.433E-05
   9.250  0.126E-04  0.155E-04  0.422E-05  0.516E-05  0.422E-05  0.516E-05  0.422E-05  0.516E-05
   9.300  0.151E-04  0.180E-04  0.502E-05  0.602E-05  0.502E-05  0.602E-05  0.502E-05  0.602E-05
   9.350  0.175E-04  0.207E-04  0.583E-05  0.691E-05  0.583E-05  0.691E-05  0.583E-05  0.691E-05
   9.400  0.201E-04  0.237E-04  0.670E-05  0.789E-05  0.670E-05  0.789E-05  0.670E-05  0.789E-05
   9.450  0.230E-04  0.269E-04  0.766E-05  0.897E-05  0.766E-05  0.897E-05  0.766E-05  0.897E-05
   9.500  0.261E-04  0.303E-04  0.871E-05  0.101E-04  0.871E-05  0.101E-04  0.871E-05  0.101E-04
   9.550  0.293E-04  0.336E-04  0.978E-05  0.112E-04  0.978E-05  0.112E-04  0.978E-05  0.112E-04
   9.600  0.326E-04  0.373E-04  0.109E-04  0.124E-04  0.109E-04  0.124E-04  0.109E-04  0.124E-04
   9.650  0.362E-04  0.412E-04  0.121E-04  0.137E-04  0.121E-04  0.137E-04  0.121E-04  0.137E-04
   9.700  0.400E-04  0.453E-04  0.133E-04  0.151E-04  0.133E-04  0.151E-04  0.133E-04  0.151E-04
   9.750  0.440E-04  0.494E-04  0.147E-04  0.165E-04  0.147E-04  0.165E-04  0.147E-04  0.165E-04
   9.800  0.479E-04  0.537E-04  0.160E-04  0.179E-04  0.160E-04  0.179E-04  0.160E-04  0.179E-04
   9.850  0.521E-04  0.582E-04  0.174E-04  0.194E-04  0.174E-04  0.194E-04  0.174E-04  0.194E-04
   9.900  0.565E-04  0.629E-04  0.188E-04  0.210E-04  0.188E-04  0.210E-04  0.188E-04  0.210E-04
   9.950  0.611E-04  0.679E-04  0.204E-04  0.226E-04  0.204E-04  0.226E-04  0.204E-04  0.226E-04
  10.000  0.660E-04  0.730E-04  0.220E-04  0.243E-04  0.220E-04  0.243E-04  0.220E-04  0.243E-04
  10.050  0.709E-04  0.779E-04  0.236E-04  0.260E-04  0.236E-04  0.260E-04  0.236E-04  0.260E-04
  10.100  0.758E-04  0.832E-04  0.253E-04  0.277E-04  0.253E-04  0.277E-04  0.253E-04  0.277E-04
  10.150  0.809E-04  0.887E-04  0.270E-04  0.296E-04  0.270E-04  0.296E-04  0.270E-04  0.296E-04
  10.200  0.864E-04  0.945E-04  0.288E-04  0.315E-04  0.288E-04  0.315E-04  0.288E-04  0.315E-04
  10.250  0.921E-04  0.100E-03  0.307E-04  0.335E-04  0.307E-04  0.335E-04  0.307E-04  0.335E-04
  10.300  0.978E-04  0.106E-03  0.326E-04  0.354E-04  0.326E-04  0.354E-04  0.326E-04  0.354E-04
  10.350  0.104E-03  0.112E-03  0.345E-04  0.374E-04  0.345E-04  0.374E-04  0.345E-04  0.374E-04
  10.400  0.110E-03  0.118E-03  0.365E-04  0.395E-04  0.365E-04  0.395E-04  0.365E-04  0.395E-04
  10.450  0.116E-03  0.125E-03  0.386E-04  0.416E-04  0.386E-04  0.416E-04  0.386E-04  0.416E-04
  10.500  0.122E-03  0.131E-03  0.407E-04  0.438E-04  0.407E-04  0.438E-04  0.407E-04  0.438E-04
  10.550  0.129E-03  0.138E-03  0.429E-04  0.461E-04  0.429E-04  0.461E-04  0.429E-04  0.461E-04
  10.600  0.135E-03  0.145E-03  0.451E-04  0.483E-04  0.451E-04  0.483E-04  0.451E-04  0.483E-04
  10.650  0.142E-03  0.152E-03  0.473E-04  0.506E-04  0.473E-04  0.506E-04  0.473E-04  0.506E-04
  10.700  0.149E-03  0.159E-03  0.496E-04  0.529E-04  0.496E-04  0.529E-04  0.496E-04  0.529E-04
  10.750  0.156E-03  0.166E-03  0.520E-04  0.554E-04  0.520E-04  0.554E-04  0.520E-04  0.554E-04
  10.800  0.163E-03  0.174E-03  0.545E-04  0.579E-04  0.545E-04  0.579E-04  0.545E-04  0.579E-04
  10.850  0.171E-03  0.181E-03  0.569E-04  0.604E-04  0.569E-04  0.604E-04  0.569E-04  0.604E-04
  10.900  0.179E-03  0.189E-03  0.596E-04  0.631E-04  0.596E-04  0.631E-04  0.596E-04  0.631E-04
  10.950  0.187E-03  0.197E-03  0.622E-04  0.656E-04  0.622E-04  0.656E-04  0.622E-04  0.656E-04
  11.000  0.194E-03  0.204E-03  0.647E-04  0.681E-04  0.647E-04  0.681E-04  0.647E-04  0.681E-04
  11.050  0.202E-03  0.213E-03  0.674E-04  0.709E-04  0.674E-04  0.709E-04  0.674E-04  0.709E-04
  11.100  0.210E-03  0.221E-03  0.701E-04  0.735E-04  0.701E-04  0.735E-04  0.701E-04  0.735E-04
  11.150  0.219E-03  0.229E-03  0.729E-04  0.764E-04  0.729E-04  0.764E-04  0.729E-04  0.764E-04
  11.200  0.228E-03  0.238E-03  0.759E-04  0.793E-04  0.759E-04  0.793E-04  0.759E-04  0.793E-04
  11.250  0.237E-03  0.247E-03  0.788E-04  0.822E-04  0.788E-04  0.822E-04  0.788E-04  0.822E-04
  11.300  0.246E-03  0.255E-03  0.819E-04  0.851E-04  0.819E-04  0.851E-04  0.819E-04  0.851E-04
  11.350  0.255E-03  0.264E-03  0.849E-04  0.881E-04  0.849E-04  0.881E-04  0.849E-04  0.881E-04
  11.400  0.264E-03  0.273E-03  0.879E-04  0.910E-04  0.879E-04  0.910E-04  0.879E-04  0.910E-04
  11.450  0.274E-03  0.282E-03  0.912E-04  0.942E-04  0.912E-04  0.942E-04  0.912E-04  0.942E-04
  11.500  0.283E-03  0.292E-03  0.944E-04  0.972E-04  0.944E-04  0.972E-04  0.944E-04  0.972E-04
  11.550  0.293E-03  0.301E-03  0.978E-04  0.100E-03  0.978E-04  0.100E-03  0.978E-04  0.100E-03
  11.600  0.303E-03  0.311E-03  0.101E-03  0.104E-03  0.101E-03  0.104E-03  0.101E-03  0.104E-03
  11.650  0.313E-03  0.321E-03  0.104E-03  0.107E-03  0.104E-03  0.107E-03  0.104E-03  0.107E-03
  11.700  0.325E-03  0.331E-03  0.108E-03  0.110E-03  0.108E-03  0.110E-03  0.108E-03  0.110E-03
  11.750  0.335E-03  0.341E-03  0.112E-03  0.114E-03  0.112E-03  0.114E-03  0.112E-03  0.114E-03
  11.800  0.346E-03  0.351E-03  0.115E-03  0.117E-03  0.115E-03  0.117E-03  0.115E-03  0.117E-03
  11.850  0.358E-03  0.362E-03  0.119E-03  0.121E-03  0.119E-03  0.121E-03  0.119E-03  0.121E-03
  11.900  0.370E-03  0.373E-03  0.123E-03  0.124E-03  0.123E-03  0.124E-03  0.123E-03  0.124E-03
  11.950  0.382E-03  0.384E-03  0.127E-03  0.128E-03  0.127E-03  0.128E-03  0.127E-03  0.128E-03
  12.000  0.393E-03  0.394E-03  0.131E-03  0.131E-03  0.131E-03  0.131E-03  0.131E-03  0.131E-03
  12.050  0.406E-03  0.405E-03  0.135E-03  0.135E-03  0.135E-03  0.135E-03  0.135E-03  0.135E-03
  12.100  0.419E-03  0.416E-03  0.140E-03  0.139E-03  0.140E-03  0.139E-03  0.140E-03  0.139E-03
  12.150  0.432E-03  0.429E-03  0.144E-03  0.143E-03  0.144E-03  0.143E-03  0.144E-03  0.143E-03
  12.200  0.446E-03  0.439E-03  0.149E-03  0.146E-03  0.149E-03  0.146E-03  0.149E-03  0.146E-03
  12.250  0.460E-03  0.452E-03  0.153E-03  0.151E-03  0.153E-03  0.151E-03  0.153E-03  0.151E-03
  12.300  0.475E-03  0.464E-03  0.158E-03  0.155E-03  0.158E-03  0.155E-03  0.158E-03  0.155E-03
  12.350  0.489E-03  0.477E-03  0.163E-03  0.159E-03  0.163E-03  0.159E-03  0.163E-03  0.159E-03
  12.400  0.505E-03  0.488E-03  0.168E-03  0.163E-03  0.168E-03  0.163E-03  0.168E-03  0.163E-03
  12.450  0.520E-03  0.501E-03  0.173E-03  0.167E-03  0.173E-03  0.167E-03  0.173E-03  0.167E-03
  12.500  0.538E-03  0.515E-03  0.179E-03  0.172E-03  0.179E-03  0.172E-03  0.179E-03  0.172E-03
  12.550  0.555E-03  0.527E-03  0.185E-03  0.176E-03  0.185E-03  0.176E-03  0.185E-03  0.176E-03
  12.600  0.572E-03  0.541E-03  0.191E-03  0.180E-03  0.191E-03  0.180E-03  0.191E-03  0.180E-03
  12.650  0.592E-03  0.555E-03  0.197E-03  0.185E-03  0.197E-03  0.185E-03  0.197E-03  0.185E-03
  12.700  0.609E-03  0.570E-03  0.203E-03  0.190E-03  0.203E-03  0.190E-03  0.203E-03  0.190E-03
  12.750  0.630E-03  0.584E-03  0.210E-03  0.195E-03  0.210E-03  0.195E-03  0.210E-03  0.195E-03
  12.800  0.652E-03  0.598E-03  0.217E-03  0.199E-03  0.217E-03  0.199E-03  0.217E-03  0.199E-03
  12.850  0.672E-03  0.614E-03  0.224E-03  0.205E-03  0.224E-03  0.205E-03  0.224E-03  0.205E-03
  12.900  0.693E-03  0.628E-03  0.231E-03  0.209E-03  0.231E-03  0.209E-03  0.231E-03  0.209E-03
  12.950  0.710E-03  0.645E-03  0.237E-03  0.215E-03  0.237E-03  0.215E-03  0.237E-03  0.215E-03
  13.000  0.718E-03  0.661E-03  0.239E-03  0.220E-03  0.239E-03  0.220E-03  0.239E-03  0.220E-03
  13.050  0.733E-03  0.678E-03  0.244E-03  0.226E-03  0.244E-03  0.226E-03  0.244E-03  0.226E-03
  13.100  0.751E-03  0.695E-03  0.250E-03  0.232E-03  0.250E-03  0.232E-03  0.250E-03  0.232E-03
  13.150  0.812E-03  0.710E-03  0.271E-03  0.237E-03  0.271E-03  0.237E-03  0.271E-03  0.237E-03
  13.200  0.799E-03  0.729E-03  0.266E-03  0.243E-03  0.266E-03  0.243E-03  0.266E-03  0.243E-03
  13.250  0.783E-03  0.746E-03  0.261E-03  0.249E-03  0.261E-03  0.249E-03  0.261E-03  0.249E-03
  13.300  0.768E-03  0.765E-03  0.256E-03  0.255E-03  0.256E-03  0.255E-03  0.256E-03  0.255E-03
  13.350  0.756E-03  0.781E-03  0.252E-03  0.260E-03  0.252E-03  0.260E-03  0.252E-03  0.260E-03
  13.400  0.737E-03  0.794E-03  0.246E-03  0.265E-03  0.246E-03  0.265E-03  0.246E-03  0.265E-03
  13.450  0.717E-03  0.806E-03  0.239E-03  0.269E-03  0.239E-03  0.269E-03  0.239E-03  0.269E-03
  13.500  0.701E-03  0.823E-03  0.234E-03  0.274E-03  0.234E-03  0.274E-03  0.234E-03  0.274E-03
  13.550  0.673E-03  0.844E-03  0.224E-03  0.281E-03  0.224E-03  0.281E-03  0.224E-03  0.281E-03
  13.600  0.644E-03  0.828E-03  0.215E-03  0.276E-03  0.215E-03  0.276E-03  0.215E-03  0.276E-03
  13.650  0.618E-03  0.812E-03  0.206E-03  0.271E-03  0.206E-03  0.271E-03  0.206E-03  0.271E-03
  13.700  0.587E-03  0.792E-03  0.196E-03  0.264E-03  0.196E-03  0.264E-03  0.196E-03  0.264E-03
  13.750  0.550E-03  0.778E-03  0.183E-03  0.259E-03  0.183E-03  0.259E-03  0.183E-03  0.259E-03
  13.800  0.518E-03  0.761E-03  0.173E-03  0.254E-03  0.173E-03  0.254E-03  0.173E-03  0.254E-03
  13.850  0.490E-03  0.741E-03  0.163E-03  0.247E-03  0.163E-03  0.247E-03  0.163E-03  0.247E-03
  13.900  0.464E-03  0.718E-03  0.155E-03  0.239E-03  0.155E-03  0.239E-03  0.155E-03  0.239E-03
  13.950  0.447E-03  0.703E-03  0.149E-03  0.234E-03  0.149E-03  0.234E-03  0.149E-03  0.234E-03
  14.000  0.442E-03  0.680E-03  0.147E-03  0.227E-03  0.147E-03  0.227E-03  0.147E-03  0.227E-03
  14.050  0.451E-03  0.657E-03  0.150E-03  0.219E-03  0.150E-03  0.219E-03  0.150E-03  0.219E-03
  14.100  0.459E-03  0.631E-03  0.153E-03  0.210E-03  0.153E-03  0.210E-03  0.153E-03  0.210E-03
  14.150  0.482E-03  0.615E-03  0.161E-03  0.205E-03  0.161E-03  0.205E-03  0.161E-03  0.205E-03
  14.200  0.447E-03  0.583E-03  0.149E-03  0.194E-03  0.149E-03  0.194E-03  0.149E-03  0.194E-03
  14.250  0.438E-03  0.555E-03  0.146E-03  0.185E-03  0.146E-03  0.185E-03  0.146E-03  0.185E-03
  14.300  0.354E-03  0.531E-03  0.118E-03  0.177E-03  0.118E-03  0.177E-03  0.118E-03  0.177E-03
  14.350  0.407E-03  0.509E-03  0.136E-03  0.170E-03  0.136E-03  0.170E-03  0.136E-03  0.170E-03
  14.400  0.498E-03  0.483E-03  0.166E-03  0.161E-03  0.166E-03  0.161E-03  0.166E-03  0.161E-03
  14.450  0.537E-03  0.467E-03  0.179E-03  0.156E-03  0.179E-03  0.156E-03  0.179E-03  0.156E-03
  14.500  0.593E-03  0.468E-03  0.198E-03  0.156E-03  0.198E-03  0.156E-03  0.198E-03  0.156E-03
  14.550  0.643E-03  0.460E-03  0.214E-03  0.153E-03  0.214E-03  0.153E-03  0.214E-03  0.153E-03
  14.600  0.687E-03  0.459E-03  0.229E-03  0.153E-03  0.229E-03  0.153E-03  0.229E-03  0.153E-03
  14.650  0.748E-03  0.483E-03  0.249E-03  0.161E-03  0.249E-03  0.161E-03  0.249E-03  0.161E-03
  14.700  0.888E-03  0.517E-03  0.296E-03  0.172E-03  0.296E-03  0.172E-03  0.296E-03  0.172E-03
  14.750  0.117E-02  0.366E-03  0.389E-03  0.122E-03  0.389E-03  0.122E-03  0.389E-03  0.122E-03
  14.800  0.116E-02  0.279E-03  0.388E-03  0.929E-04  0.388E-03  0.929E-04  0.388E-03  0.929E-04
  14.850  0.116E-02  0.356E-03  0.386E-03  0.119E-03  0.386E-03  0.119E-03  0.386E-03  0.119E-03
  14.900  0.115E-02  0.431E-03  0.385E-03  0.144E-03  0.385E-03  0.144E-03  0.385E-03  0.144E-03
  14.950  0.115E-02  0.488E-03  0.384E-03  0.163E-03  0.384E-03  0.163E-03  0.384E-03  0.163E-03
  15.000  0.116E-02  0.534E-03  0.387E-03  0.178E-03  0.387E-03  0.178E-03  0.387E-03  0.178E-03
  15.050  0.118E-02  0.587E-03  0.392E-03  0.196E-03  0.392E-03  0.196E-03  0.392E-03  0.196E-03
  15.100  0.108E-02  0.659E-03  0.360E-03  0.220E-03  0.360E-03  0.220E-03  0.360E-03  0.220E-03
  15.150  0.106E-02  0.726E-03  0.352E-03  0.242E-03  0.352E-03  0.242E-03  0.352E-03  0.242E-03
  15.200  0.108E-02  0.772E-03  0.361E-03  0.257E-03  0.361E-03  0.257E-03  0.361E-03  0.257E-03
  15.250  0.115E-02  0.827E-03  0.382E-03  0.276E-03  0.382E-03  0.276E-03  0.382E-03  0.276E-03
  15.300  0.129E-02  0.890E-03  0.430E-03  0.297E-03  0.430E-03  0.297E-03  0.430E-03  0.297E-03
  15.350  0.142E-02  0.103E-02  0.474E-03  0.344E-03  0.474E-03  0.344E-03  0.474E-03  0.344E-03
  15.400  0.118E-02  0.137E-02  0.393E-03  0.457E-03  0.393E-03  0.457E-03  0.393E-03  0.457E-03
  15.450  0.107E-02  0.137E-02  0.355E-03  0.458E-03  0.355E-03  0.458E-03  0.355E-03  0.458E-03
  15.500  0.105E-02  0.134E-02  0.351E-03  0.447E-03  0.351E-03  0.447E-03  0.351E-03  0.447E-03
  15.550  0.839E-03  0.134E-02  0.280E-03  0.446E-03  0.280E-03  0.446E-03  0.280E-03  0.446E-03
  15.600  0.840E-03  0.132E-02  0.280E-03  0.439E-03  0.280E-03  0.439E-03  0.280E-03  0.439E-03
  15.650  0.733E-03  0.133E-02  0.244E-03  0.445E-03  0.244E-03  0.445E-03  0.244E-03  0.445E-03
  15.700  0.770E-03  0.135E-02  0.257E-03  0.450E-03  0.257E-03  0.450E-03  0.257E-03  0.450E-03
  15.750  0.830E-03  0.129E-02  0.277E-03  0.431E-03  0.277E-03  0.431E-03  0.277E-03  0.431E-03
  15.800  0.873E-03  0.121E-02  0.291E-03  0.403E-03  0.291E-03  0.403E-03  0.291E-03  0.403E-03
  15.850  0.672E-03  0.123E-02  0.224E-03  0.411E-03  0.224E-03  0.411E-03  0.224E-03  0.411E-03
  15.900  0.628E-03  0.129E-02  0.209E-03  0.431E-03  0.209E-03  0.431E-03  0.209E-03  0.431E-03
  15.950  0.590E-03  0.143E-02  0.197E-03  0.475E-03  0.197E-03  0.475E-03  0.197E-03  0.475E-03
  16.000  0.560E-03  0.166E-02  0.187E-03  0.552E-03  0.187E-03  0.552E-03  0.187E-03  0.552E-03
  16.050  0.530E-03  0.135E-02  0.177E-03  0.451E-03  0.177E-03  0.451E-03  0.177E-03  0.451E-03
  16.100  0.506E-03  0.123E-02  0.169E-03  0.411E-03  0.169E-03  0.411E-03  0.169E-03  0.411E-03
  16.150  0.484E-03  0.117E-02  0.161E-03  0.391E-03  0.161E-03  0.391E-03  0.161E-03  0.391E-03
  16.200  0.466E-03  0.120E-02  0.155E-03  0.401E-03  0.155E-03  0.401E-03  0.155E-03  0.401E-03
  16.250  0.453E-03  0.112E-02  0.151E-03  0.374E-03  0.151E-03  0.374E-03  0.151E-03  0.374E-03
  16.300  0.431E-03  0.886E-03  0.144E-03  0.295E-03  0.144E-03  0.295E-03  0.144E-03  0.295E-03
  16.350  0.412E-03  0.878E-03  0.137E-03  0.293E-03  0.137E-03  0.293E-03  0.137E-03  0.293E-03
  16.400  0.390E-03  0.105E-02  0.130E-03  0.350E-03  0.130E-03  0.350E-03  0.130E-03  0.350E-03
  16.450  0.372E-03  0.997E-03  0.124E-03  0.332E-03  0.124E-03  0.332E-03  0.124E-03  0.332E-03
  16.500  0.330E-03  0.844E-03  0.110E-03  0.281E-03  0.110E-03  0.281E-03  0.110E-03  0.281E-03
  16.550  0.299E-03  0.765E-03  0.998E-04  0.255E-03  0.998E-04  0.255E-03  0.998E-04  0.255E-03
  16.600  0.274E-03  0.710E-03  0.915E-04  0.237E-03  0.915E-04  0.237E-03  0.915E-04  0.237E-03
  16.650  0.250E-03  0.663E-03  0.833E-04  0.221E-03  0.833E-04  0.221E-03  0.833E-04  0.221E-03
  16.700  0.230E-03  0.624E-03  0.767E-04  0.208E-03  0.767E-04  0.208E-03  0.767E-04  0.208E-03
  16.750  0.213E-03  0.585E-03  0.711E-04  0.195E-03  0.711E-04  0.195E-03  0.711E-04  0.195E-03
  16.800  0.199E-03  0.545E-03  0.663E-04  0.182E-03  0.663E-04  0.182E-03  0.663E-04  0.182E-03
  16.850  0.184E-03  0.508E-03  0.614E-04  0.169E-03  0.614E-04  0.169E-03  0.614E-04  0.169E-03
  16.900  0.174E-03  0.474E-03  0.579E-04  0.158E-03  0.579E-04  0.158E-03  0.579E-04  0.158E-03
  16.950  0.165E-03  0.451E-03  0.550E-04  0.150E-03  0.550E-04  0.150E-03  0.550E-04  0.150E-03
  17.000  0.160E-03  0.419E-03  0.533E-04  0.140E-03  0.533E-04  0.140E-03  0.533E-04  0.140E-03
  17.050  0.159E-03  0.394E-03  0.530E-04  0.131E-03  0.530E-04  0.131E-03  0.530E-04  0.131E-03
  17.100  0.155E-03  0.375E-03  0.515E-04  0.125E-03  0.515E-04  0.125E-03  0.515E-04  0.125E-03
  17.150  0.150E-03  0.357E-03  0.500E-04  0.119E-03  0.500E-04  0.119E-03  0.500E-04  0.119E-03
  17.200  0.146E-03  0.315E-03  0.487E-04  0.105E-03  0.487E-04  0.105E-03  0.487E-04  0.105E-03
  17.250  0.140E-03  0.277E-03  0.466E-04  0.925E-04  0.466E-04  0.925E-04  0.466E-04  0.925E-04
  17.300  0.146E-03  0.245E-03  0.487E-04  0.816E-04  0.487E-04  0.816E-04  0.487E-04  0.816E-04
  17.350  0.159E-03  0.215E-03  0.529E-04  0.715E-04  0.529E-04  0.715E-04  0.529E-04  0.715E-04
  17.400  0.176E-03  0.191E-03  0.587E-04  0.637E-04  0.587E-04  0.637E-04  0.587E-04  0.637E-04
  17.450  0.196E-03  0.178E-03  0.652E-04  0.594E-04  0.652E-04  0.594E-04  0.652E-04  0.594E-04
  17.500  0.214E-03  0.169E-03  0.713E-04  0.565E-04  0.713E-04  0.565E-04  0.713E-04  0.565E-04
  17.550  0.232E-03  0.160E-03  0.773E-04  0.535E-04  0.773E-04  0.535E-04  0.773E-04  0.535E-04
  17.600  0.248E-03  0.152E-03  0.827E-04  0.505E-04  0.827E-04  0.505E-04  0.827E-04  0.505E-04
  17.650  0.273E-03  0.146E-03  0.909E-04  0.485E-04  0.909E-04  0.485E-04  0.909E-04  0.485E-04
  17.700  0.290E-03  0.139E-03  0.966E-04  0.463E-04  0.966E-04  0.463E-04  0.966E-04  0.463E-04
  17.750  0.299E-03  0.134E-03  0.998E-04  0.446E-04  0.998E-04  0.446E-04  0.998E-04  0.446E-04
  17.800  0.310E-03  0.133E-03  0.103E-03  0.445E-04  0.103E-03  0.445E-04  0.103E-03  0.445E-04
  17.850  0.318E-03  0.139E-03  0.106E-03  0.462E-04  0.106E-03  0.462E-04  0.106E-03  0.462E-04
  17.900  0.327E-03  0.146E-03  0.109E-03  0.486E-04  0.109E-03  0.486E-04  0.109E-03  0.486E-04
  17.950  0.337E-03  0.149E-03  0.112E-03  0.496E-04  0.112E-03  0.496E-04  0.112E-03  0.496E-04
  18.000  0.346E-03  0.138E-03  0.115E-03  0.461E-04  0.115E-03  0.461E-04  0.115E-03  0.461E-04
  18.050  0.355E-03  0.142E-03  0.118E-03  0.475E-04  0.118E-03  0.475E-04  0.118E-03  0.475E-04
  18.100  0.364E-03  0.145E-03  0.121E-03  0.483E-04  0.121E-03  0.483E-04  0.121E-03  0.483E-04
  18.150  0.371E-03  0.162E-03  0.124E-03  0.539E-04  0.124E-03  0.539E-04  0.124E-03  0.539E-04
  18.200  0.379E-03  0.177E-03  0.126E-03  0.592E-04  0.126E-03  0.592E-04  0.126E-03  0.592E-04
  18.250  0.385E-03  0.189E-03  0.128E-03  0.631E-04  0.128E-03  0.631E-04  0.128E-03  0.631E-04
  18.300  0.391E-03  0.201E-03  0.130E-03  0.669E-04  0.130E-03  0.669E-04  0.130E-03  0.669E-04
  18.350  0.397E-03  0.217E-03  0.132E-03  0.724E-04  0.132E-03  0.724E-04  0.132E-03  0.724E-04
  18.400  0.405E-03  0.233E-03  0.135E-03  0.775E-04  0.135E-03  0.775E-04  0.135E-03  0.775E-04
  18.450  0.409E-03  0.247E-03  0.136E-03  0.823E-04  0.136E-03  0.823E-04  0.136E-03  0.823E-04
  18.500  0.414E-03  0.262E-03  0.138E-03  0.873E-04  0.138E-03  0.873E-04  0.138E-03  0.873E-04
  18.550  0.419E-03  0.276E-03  0.140E-03  0.919E-04  0.140E-03  0.919E-04  0.140E-03  0.919E-04
  18.600  0.423E-03  0.285E-03  0.141E-03  0.950E-04  0.141E-03  0.950E-04  0.141E-03  0.950E-04
  18.650  0.427E-03  0.298E-03  0.142E-03  0.992E-04  0.142E-03  0.992E-04  0.142E-03  0.992E-04
  18.700  0.430E-03  0.310E-03  0.143E-03  0.103E-03  0.143E-03  0.103E-03  0.143E-03  0.103E-03
  18.750  0.434E-03  0.320E-03  0.145E-03  0.107E-03  0.145E-03  0.107E-03  0.145E-03  0.107E-03
  18.800  0.436E-03  0.331E-03  0.145E-03  0.110E-03  0.145E-03  0.110E-03  0.145E-03  0.110E-03
  18.850  0.439E-03  0.339E-03  0.146E-03  0.113E-03  0.146E-03  0.113E-03  0.146E-03  0.113E-03
  18.900  0.441E-03  0.348E-03  0.147E-03  0.116E-03  0.147E-03  0.116E-03  0.147E-03  0.116E-03
  18.950  0.443E-03  0.356E-03  0.148E-03  0.119E-03  0.148E-03  0.119E-03  0.148E-03  0.119E-03
  19.000  0.445E-03  0.364E-03  0.148E-03  0.121E-03  0.148E-03  0.121E-03  0.148E-03  0.121E-03
  19.050  0.446E-03  0.372E-03  0.149E-03  0.124E-03  0.149E-03  0.124E-03  0.149E-03  0.124E-03
  19.100  0.449E-03  0.378E-03  0.150E-03  0.126E-03  0.150E-03  0.126E-03  0.150E-03  0.126E-03
  19.150  0.449E-03  0.384E-03  0.150E-03  0.128E-03  0.150E-03  0.128E-03  0.150E-03  0.128E-03
  19.200  0.450E-03  0.391E-03  0.150E-03  0.130E-03  0.150E-03  0.130E-03  0.150E-03  0.130E-03
  19.250  0.450E-03  0.396E-03  0.150E-03  0.132E-03  0.150E-03  0.132E-03  0.150E-03  0.132E-03
  19.300  0.450E-03  0.402E-03  0.150E-03  0.134E-03  0.150E-03  0.134E-03  0.150E-03  0.134E-03
  19.350  0.451E-03  0.407E-03  0.150E-03  0.136E-03  0.150E-03  0.136E-03  0.150E-03  0.136E-03
  19.400  0.451E-03  0.410E-03  0.150E-03  0.137E-03  0.150E-03  0.137E-03  0.150E-03  0.137E-03
  19.450  0.450E-03  0.413E-03  0.150E-03  0.138E-03  0.150E-03  0.138E-03  0.150E-03  0.138E-03
  19.500  0.450E-03  0.418E-03  0.150E-03  0.139E-03  0.150E-03  0.139E-03  0.150E-03  0.139E-03
  19.550  0.450E-03  0.421E-03  0.150E-03  0.140E-03  0.150E-03  0.140E-03  0.150E-03  0.140E-03
  19.600  0.450E-03  0.425E-03  0.150E-03  0.142E-03  0.150E-03  0.142E-03  0.150E-03  0.142E-03
  19.650  0.449E-03  0.427E-03  0.150E-03  0.142E-03  0.150E-03  0.142E-03  0.150E-03  0.142E-03
  19.700  0.449E-03  0.429E-03  0.150E-03  0.143E-03  0.150E-03  0.143E-03  0.150E-03  0.143E-03
  19.750  0.448E-03  0.432E-03  0.149E-03  0.144E-03  0.149E-03  0.144E-03  0.149E-03  0.144E-03
  19.800  0.448E-03  0.435E-03  0.149E-03  0.145E-03  0.149E-03  0.145E-03  0.149E-03  0.145E-03
  19.850  0.447E-03  0.438E-03  0.149E-03  0.146E-03  0.149E-03  0.146E-03  0.149E-03  0.146E-03
  19.900  0.447E-03  0.438E-03  0.149E-03  0.146E-03  0.149E-03  0.146E-03  0.149E-03  0.146E-03
  19.950  0.446E-03  0.441E-03  0.149E-03  0.147E-03  0.149E-03  0.147E-03  0.149E-03  0.147E-03
  20.000  0.446E-03  0.443E-03  0.149E-03  0.148E-03  0.149E-03  0.148E-03  0.149E-03  0.148E-03
  20.050  0.447E-03  0.446E-03  0.149E-03  0.149E-03  0.149E-03  0.149E-03  0.149E-03  0.149E-03
  20.100  0.449E-03  0.451E-03  0.150E-03  0.150E-03  0.150E-03  0.150E-03  0.150E-03  0.150E-03
  20.150  0.450E-03  0.456E-03  0.150E-03  0.152E-03  0.150E-03  0.152E-03  0.150E-03  0.152E-03
  20.200  0.456E-03  0.461E-03  0.152E-03  0.154E-03  0.152E-03  0.154E-03  0.152E-03  0.154E-03
  20.250  0.463E-03  0.466E-03  0.154E-03  0.155E-03  0.154E-03  0.155E-03  0.154E-03  0.155E-03
  20.300  0.462E-03  0.465E-03  0.154E-03  0.155E-03  0.154E-03  0.155E-03  0.154E-03  0.155E-03
  20.350  0.456E-03  0.462E-03  0.152E-03  0.154E-03  0.152E-03  0.154E-03  0.152E-03  0.154E-03
  20.400  0.448E-03  0.457E-03  0.149E-03  0.152E-03  0.149E-03  0.152E-03  0.149E-03  0.152E-03
  20.450  0.442E-03  0.452E-03  0.147E-03  0.151E-03  0.147E-03  0.151E-03  0.147E-03  0.151E-03
  20.500  0.439E-03  0.449E-03  0.146E-03  0.150E-03  0.146E-03  0.150E-03  0.146E-03  0.150E-03
  20.550  0.435E-03  0.445E-03  0.145E-03  0.148E-03  0.145E-03  0.148E-03  0.145E-03  0.148E-03
  20.600  0.428E-03  0.441E-03  0.143E-03  0.147E-03  0.143E-03  0.147E-03  0.143E-03  0.147E-03
  20.650  0.421E-03  0.439E-03  0.140E-03  0.146E-03  0.140E-03  0.146E-03  0.140E-03  0.146E-03
  20.700  0.413E-03  0.433E-03  0.138E-03  0.144E-03  0.138E-03  0.144E-03  0.138E-03  0.144E-03
  20.750  0.406E-03  0.428E-03  0.135E-03  0.143E-03  0.135E-03  0.143E-03  0.135E-03  0.143E-03
  20.800  0.401E-03  0.423E-03  0.134E-03  0.141E-03  0.134E-03  0.141E-03  0.134E-03  0.141E-03
  20.850  0.395E-03  0.418E-03  0.132E-03  0.139E-03  0.132E-03  0.139E-03  0.132E-03  0.139E-03
  20.900  0.389E-03  0.413E-03  0.130E-03  0.138E-03  0.130E-03  0.138E-03  0.130E-03  0.138E-03
  20.950  0.383E-03  0.408E-03  0.128E-03  0.136E-03  0.128E-03  0.136E-03  0.128E-03  0.136E-03
  21.000  0.377E-03  0.404E-03  0.126E-03  0.135E-03  0.126E-03  0.135E-03  0.126E-03  0.135E-03
  21.050  0.371E-03  0.397E-03  0.124E-03  0.132E-03  0.124E-03  0.132E-03  0.124E-03  0.132E-03
  21.100  0.364E-03  0.392E-03  0.121E-03  0.131E-03  0.121E-03  0.131E-03  0.121E-03  0.131E-03
  21.150  0.357E-03  0.387E-03  0.119E-03  0.129E-03  0.119E-03  0.129E-03  0.119E-03  0.129E-03
  21.200  0.350E-03  0.380E-03  0.117E-03  0.127E-03  0.117E-03  0.127E-03  0.117E-03  0.127E-03
  21.250  0.344E-03  0.375E-03  0.115E-03  0.125E-03  0.115E-03  0.125E-03  0.115E-03  0.125E-03
  21.300  0.337E-03  0.369E-03  0.112E-03  0.123E-03  0.112E-03  0.123E-03  0.112E-03  0.123E-03
  21.350  0.330E-03  0.363E-03  0.110E-03  0.121E-03  0.110E-03  0.121E-03  0.110E-03  0.121E-03
  21.400  0.323E-03  0.356E-03  0.108E-03  0.119E-03  0.108E-03  0.119E-03  0.108E-03  0.119E-03
  21.450  0.318E-03  0.350E-03  0.106E-03  0.117E-03  0.106E-03  0.117E-03  0.106E-03  0.117E-03
  21.500  0.312E-03  0.345E-03  0.104E-03  0.115E-03  0.104E-03  0.115E-03  0.104E-03  0.115E-03
  21.550  0.305E-03  0.339E-03  0.102E-03  0.113E-03  0.102E-03  0.113E-03  0.102E-03  0.113E-03
  21.600  0.298E-03  0.333E-03  0.992E-04  0.111E-03  0.992E-04  0.111E-03  0.992E-04  0.111E-03
  21.650  0.291E-03  0.327E-03  0.970E-04  0.109E-03  0.970E-04  0.109E-03  0.970E-04  0.109E-03
  21.700  0.284E-03  0.320E-03  0.947E-04  0.107E-03  0.947E-04  0.107E-03  0.947E-04  0.107E-03
  21.750  0.278E-03  0.314E-03  0.926E-04  0.105E-03  0.926E-04  0.105E-03  0.926E-04  0.105E-03
  21.800  0.271E-03  0.308E-03  0.904E-04  0.103E-03  0.904E-04  0.103E-03  0.904E-04  0.103E-03
  21.850  0.265E-03  0.300E-03  0.884E-04  0.100E-03  0.884E-04  0.100E-03  0.884E-04  0.100E-03
  21.900  0.260E-03  0.294E-03  0.866E-04  0.980E-04  0.866E-04  0.980E-04  0.866E-04  0.980E-04
  21.950  0.253E-03  0.287E-03  0.842E-04  0.958E-04  0.842E-04  0.958E-04  0.842E-04  0.958E-04
  22.000  0.247E-03  0.282E-03  0.822E-04  0.939E-04  0.822E-04  0.939E-04  0.822E-04  0.939E-04
  22.050  0.240E-03  0.276E-03  0.799E-04  0.920E-04  0.799E-04  0.920E-04  0.799E-04  0.920E-04
  22.100  0.232E-03  0.270E-03  0.774E-04  0.900E-04  0.774E-04  0.900E-04  0.774E-04  0.900E-04
  22.150  0.227E-03  0.263E-03  0.755E-04  0.878E-04  0.755E-04  0.878E-04  0.755E-04  0.878E-04
  22.200  0.220E-03  0.258E-03  0.735E-04  0.859E-04  0.735E-04  0.859E-04  0.735E-04  0.859E-04
  22.250  0.215E-03  0.251E-03  0.716E-04  0.837E-04  0.716E-04  0.837E-04  0.716E-04  0.837E-04
  22.300  0.208E-03  0.245E-03  0.695E-04  0.815E-04  0.695E-04  0.815E-04  0.695E-04  0.815E-04
  22.350  0.202E-03  0.238E-03  0.675E-04  0.792E-04  0.675E-04  0.792E-04  0.675E-04  0.792E-04
  22.400  0.197E-03  0.231E-03  0.656E-04  0.770E-04  0.656E-04  0.770E-04  0.656E-04  0.770E-04
  22.450  0.191E-03  0.225E-03  0.636E-04  0.750E-04  0.636E-04  0.750E-04  0.636E-04  0.750E-04
  22.500  0.185E-03  0.219E-03  0.615E-04  0.730E-04  0.615E-04  0.730E-04  0.615E-04  0.730E-04
  22.550  0.179E-03  0.213E-03  0.595E-04  0.710E-04  0.595E-04  0.710E-04  0.595E-04  0.710E-04
  22.600  0.174E-03  0.207E-03  0.578E-04  0.691E-04  0.578E-04  0.691E-04  0.578E-04  0.691E-04
  22.650  0.168E-03  0.202E-03  0.560E-04  0.672E-04  0.560E-04  0.672E-04  0.560E-04  0.672E-04
  22.700  0.163E-03  0.196E-03  0.542E-04  0.653E-04  0.542E-04  0.653E-04  0.542E-04  0.653E-04
  22.750  0.157E-03  0.189E-03  0.525E-04  0.629E-04  0.525E-04  0.629E-04  0.525E-04  0.629E-04
  22.800  0.152E-03  0.183E-03  0.507E-04  0.611E-04  0.507E-04  0.611E-04  0.507E-04  0.611E-04
  22.850  0.146E-03  0.178E-03  0.488E-04  0.593E-04  0.488E-04  0.593E-04  0.488E-04  0.593E-04
  22.900  0.141E-03  0.172E-03  0.470E-04  0.574E-04  0.470E-04  0.574E-04  0.470E-04  0.574E-04
  22.950  0.136E-03  0.167E-03  0.452E-04  0.558E-04  0.452E-04  0.558E-04  0.452E-04  0.558E-04
  23.000  0.130E-03  0.162E-03  0.434E-04  0.539E-04  0.434E-04  0.539E-04  0.434E-04  0.539E-04
  23.050  0.125E-03  0.156E-03  0.417E-04  0.522E-04  0.417E-04  0.522E-04  0.417E-04  0.522E-04
  23.100  0.121E-03  0.151E-03  0.404E-04  0.502E-04  0.404E-04  0.502E-04  0.404E-04  0.502E-04
  23.150  0.117E-03  0.145E-03  0.390E-04  0.483E-04  0.390E-04  0.483E-04  0.390E-04  0.483E-04
  23.200  0.113E-03  0.140E-03  0.376E-04  0.466E-04  0.376E-04  0.466E-04  0.376E-04  0.466E-04
  23.250  0.109E-03  0.134E-03  0.362E-04  0.448E-04  0.362E-04  0.448E-04  0.362E-04  0.448E-04
  23.300  0.104E-03  0.129E-03  0.347E-04  0.431E-04  0.347E-04  0.431E-04  0.347E-04  0.431E-04
  23.350  0.100E-03  0.125E-03  0.333E-04  0.416E-04  0.333E-04  0.416E-04  0.333E-04  0.416E-04
  23.400  0.961E-04  0.121E-03  0.320E-04  0.402E-04  0.320E-04  0.402E-04  0.320E-04  0.402E-04
  23.450  0.925E-04  0.117E-03  0.308E-04  0.388E-04  0.308E-04  0.388E-04  0.308E-04  0.388E-04
  23.500  0.893E-04  0.112E-03  0.298E-04  0.374E-04  0.298E-04  0.374E-04  0.298E-04  0.374E-04
  23.550  0.860E-04  0.108E-03  0.287E-04  0.359E-04  0.287E-04  0.359E-04  0.287E-04  0.359E-04
  23.600  0.892E-04  0.103E-03  0.297E-04  0.345E-04  0.297E-04  0.345E-04  0.297E-04  0.345E-04
  23.650  0.770E-04  0.994E-04  0.257E-04  0.331E-04  0.257E-04  0.331E-04  0.257E-04  0.331E-04
  23.700  0.694E-04  0.954E-04  0.231E-04  0.318E-04  0.231E-04  0.318E-04  0.231E-04  0.318E-04
  23.750  0.623E-04  0.922E-04  0.208E-04  0.307E-04  0.208E-04  0.307E-04  0.208E-04  0.307E-04
  23.800  0.580E-04  0.886E-04  0.193E-04  0.295E-04  0.193E-04  0.295E-04  0.193E-04  0.295E-04
  23.850  0.528E-04  0.883E-04  0.176E-04  0.294E-04  0.176E-04  0.294E-04  0.176E-04  0.294E-04
  23.900  0.482E-04  0.780E-04  0.161E-04  0.260E-04  0.161E-04  0.260E-04  0.161E-04  0.260E-04
  23.950  0.439E-04  0.711E-04  0.146E-04  0.237E-04  0.146E-04  0.237E-04  0.146E-04  0.237E-04
  24.000  0.393E-04  0.637E-04  0.131E-04  0.212E-04  0.131E-04  0.212E-04  0.131E-04  0.212E-04
  24.050  0.355E-04  0.595E-04  0.118E-04  0.198E-04  0.118E-04  0.198E-04  0.118E-04  0.198E-04
  24.100  0.324E-04  0.538E-04  0.108E-04  0.179E-04  0.108E-04  0.179E-04  0.108E-04  0.179E-04
  24.150  0.294E-04  0.491E-04  0.980E-05  0.164E-04  0.980E-05  0.164E-04  0.980E-05  0.164E-04
  24.200  0.262E-04  0.446E-04  0.875E-05  0.149E-04  0.875E-05  0.149E-04  0.875E-05  0.149E-04
  24.250  0.238E-04  0.398E-04  0.792E-05  0.133E-04  0.792E-05  0.133E-04  0.792E-05  0.133E-04
  24.300  0.214E-04  0.361E-04  0.715E-05  0.120E-04  0.715E-05  0.120E-04  0.715E-05  0.120E-04
  24.350  0.193E-04  0.331E-04  0.645E-05  0.110E-04  0.645E-05  0.110E-04  0.645E-05  0.110E-04
  24.400  0.174E-04  0.296E-04  0.580E-05  0.987E-05  0.580E-05  0.987E-05  0.580E-05  0.987E-05
  24.450  0.156E-04  0.267E-04  0.521E-05  0.889E-05  0.521E-05  0.889E-05  0.521E-05  0.889E-05
  24.500  0.145E-04  0.241E-04  0.484E-05  0.804E-05  0.484E-05  0.804E-05  0.484E-05  0.804E-05
  24.550  0.134E-04  0.218E-04  0.447E-05  0.726E-05  0.447E-05  0.726E-05  0.447E-05  0.726E-05
  24.600  0.122E-04  0.196E-04  0.406E-05  0.655E-05  0.406E-05  0.655E-05  0.406E-05  0.655E-05
  24.650  0.105E-04  0.176E-04  0.352E-05  0.588E-05  0.352E-05  0.588E-05  0.352E-05  0.588E-05
  24.700  0.915E-05  0.161E-04  0.305E-05  0.537E-05  0.305E-05  0.537E-05  0.305E-05  0.537E-05
  24.750  0.791E-05  0.154E-04  0.264E-05  0.513E-05  0.264E-05  0.513E-05  0.264E-05  0.513E-05
  24.800  0.680E-05  0.134E-04  0.227E-05  0.446E-05  0.227E-05  0.446E-05  0.227E-05  0.446E-05
  24.850  0.581E-05  0.120E-04  0.194E-05  0.400E-05  0.194E-05  0.400E-05  0.194E-05  0.400E-05
  24.900  0.491E-05  0.104E-04  0.164E-05  0.347E-05  0.164E-05  0.347E-05  0.164E-05  0.347E-05
  24.950  0.412E-05  0.901E-05  0.137E-05  0.300E-05  0.137E-05  0.300E-05  0.137E-05  0.300E-05
  25.000  0.342E-05  0.776E-05  0.114E-05  0.259E-05  0.114E-05  0.259E-05  0.114E-05  0.259E-05
  25.050  0.280E-05  0.663E-05  0.934E-06  0.221E-05  0.934E-06  0.221E-05  0.934E-06  0.221E-05
