# E (eV)  ldosup(E)  ldosdw(E) pdosup(E)  pdosdw(E) 
   5.000  0.000E+00  0.000E+00  0.000E+00  0.000E+00
   5.050  0.000E+00  0.000E+00  0.000E+00  0.000E+00
   5.100  0.000E+00  0.000E+00  0.000E+00  0.000E+00
   5.150  0.000E+00  0.000E+00  0.000E+00  0.000E+00
   5.200  0.000E+00  0.000E+00  0.000E+00  0.000E+00
   5.250  0.000E+00  0.000E+00  0.000E+00  0.000E+00
   5.300  0.000E+00  0.000E+00  0.000E+00  0.000E+00
   5.350  0.000E+00  0.000E+00  0.000E+00  0.000E+00
   5.400  0.000E+00  0.000E+00  0.000E+00  0.000E+00
   5.450  0.000E+00  0.000E+00  0.000E+00  0.000E+00
   5.500  0.000E+00  0.000E+00  0.000E+00  0.000E+00
   5.550  0.000E+00  0.000E+00  0.000E+00  0.000E+00
   5.600  0.000E+00  0.000E+00  0.000E+00  0.000E+00
   5.650  0.000E+00  0.000E+00  0.000E+00  0.000E+00
   5.700  0.000E+00  0.000E+00  0.000E+00  0.000E+00
   5.750  0.000E+00  0.000E+00  0.000E+00  0.000E+00
   5.800  0.000E+00  0.000E+00  0.000E+00  0.000E+00
   5.850  0.000E+00  0.000E+00  0.000E+00  0.000E+00
   5.900  0.000E+00  0.000E+00  0.000E+00  0.000E+00
   5.950  0.000E+00  0.000E+00  0.000E+00  0.000E+00
   6.000  0.000E+00  0.000E+00  0.000E+00  0.000E+00
   6.050  0.000E+00  0.000E+00  0.000E+00  0.000E+00
   6.100  0.000E+00  0.000E+00  0.000E+00  0.000E+00
   6.150  0.000E+00  0.000E+00  0.000E+00  0.000E+00
   6.200  0.000E+00  0.000E+00  0.000E+00  0.000E+00
   6.250  0.000E+00  0.000E+00  0.000E+00  0.000E+00
   6.300  0.000E+00  0.000E+00  0.000E+00  0.000E+00
   6.350  0.000E+00  0.000E+00  0.000E+00  0.000E+00
   6.400  0.000E+00  0.000E+00  0.000E+00  0.000E+00
   6.450  0.000E+00  0.000E+00  0.000E+00  0.000E+00
   6.500  0.000E+00  0.000E+00  0.000E+00  0.000E+00
   6.550  0.000E+00  0.000E+00  0.000E+00  0.000E+00
   6.600  0.000E+00  0.000E+00  0.000E+00  0.000E+00
   6.650  0.000E+00  0.000E+00  0.000E+00  0.000E+00
   6.700  0.000E+00  0.000E+00  0.000E+00  0.000E+00
   6.750  0.000E+00  0.000E+00  0.000E+00  0.000E+00
   6.800  0.000E+00  0.000E+00  0.000E+00  0.000E+00
   6.850  0.000E+00  0.000E+00  0.000E+00  0.000E+00
   6.900  0.000E+00  0.000E+00  0.000E+00  0.000E+00
   6.950  0.000E+00  0.000E+00  0.000E+00  0.000E+00
   7.000  0.000E+00  0.000E+00  0.000E+00  0.000E+00
   7.050  0.000E+00  0.000E+00  0.000E+00  0.000E+00
   7.100  0.000E+00  0.000E+00  0.000E+00  0.000E+00
   7.150  0.000E+00  0.000E+00  0.000E+00  0.000E+00
   7.200  0.000E+00  0.000E+00  0.000E+00  0.000E+00
   7.250  0.000E+00  0.000E+00  0.000E+00  0.000E+00
   7.300  0.000E+00  0.000E+00  0.000E+00  0.000E+00
   7.350  0.000E+00  0.000E+00  0.000E+00  0.000E+00
   7.400  0.000E+00  0.000E+00  0.000E+00  0.000E+00
   7.450  0.000E+00  0.000E+00  0.000E+00  0.000E+00
   7.500  0.000E+00  0.000E+00  0.000E+00  0.000E+00
   7.550  0.000E+00  0.000E+00  0.000E+00  0.000E+00
   7.600  0.000E+00  0.000E+00  0.000E+00  0.000E+00
   7.650  0.000E+00  0.000E+00  0.000E+00  0.000E+00
   7.700  0.000E+00  0.000E+00  0.000E+00  0.000E+00
   7.750  0.000E+00  0.000E+00  0.000E+00  0.000E+00
   7.800  0.000E+00  0.000E+00  0.000E+00  0.000E+00
   7.850  0.000E+00  0.000E+00  0.000E+00  0.000E+00
   7.900  0.000E+00  0.000E+00  0.000E+00  0.000E+00
   7.950  0.000E+00  0.000E+00  0.000E+00  0.000E+00
   8.000  0.000E+00  0.000E+00  0.000E+00  0.000E+00
   8.050  0.000E+00  0.000E+00  0.000E+00  0.000E+00
   8.100  0.000E+00  0.000E+00  0.000E+00  0.000E+00
   8.150  0.000E+00  0.000E+00  0.000E+00  0.000E+00
   8.200  0.000E+00  0.000E+00  0.000E+00  0.000E+00
   8.250  0.000E+00  0.000E+00  0.000E+00  0.000E+00
   8.300  0.000E+00  0.000E+00  0.000E+00  0.000E+00
   8.350  0.000E+00  0.000E+00  0.000E+00  0.000E+00
   8.400  0.000E+00  0.000E+00  0.000E+00  0.000E+00
   8.450  0.000E+00  0.000E+00  0.000E+00  0.000E+00
   8.500  0.000E+00  0.000E+00  0.000E+00  0.000E+00
   8.550  0.000E+00  0.000E+00  0.000E+00  0.000E+00
   8.600  0.000E+00  0.000E+00  0.000E+00  0.000E+00
   8.650  0.000E+00  0.000E+00  0.000E+00  0.000E+00
   8.700  0.000E+00  0.516E-04  0.000E+00  0.516E-04
   8.750  0.747E-04  0.200E-03  0.747E-04  0.200E-03
   8.800  0.206E-03  0.267E-03  0.206E-03  0.267E-03
   8.850  0.273E-03  0.343E-03  0.273E-03  0.343E-03
   8.900  0.346E-03  0.393E-03  0.346E-03  0.393E-03
   8.950  0.395E-03  0.457E-03  0.395E-03  0.457E-03
   9.000  0.455E-03  0.501E-03  0.455E-03  0.501E-03
   9.050  0.500E-03  0.551E-03  0.500E-03  0.551E-03
   9.100  0.550E-03  0.603E-03  0.550E-03  0.603E-03
   9.150  0.600E-03  0.640E-03  0.600E-03  0.640E-03
   9.200  0.637E-03  0.685E-03  0.637E-03  0.685E-03
   9.250  0.682E-03  0.732E-03  0.682E-03  0.732E-03
   9.300  0.729E-03  0.772E-03  0.729E-03  0.772E-03
   9.350  0.767E-03  0.809E-03  0.767E-03  0.809E-03
   9.400  0.803E-03  0.847E-03  0.803E-03  0.847E-03
   9.450  0.842E-03  0.888E-03  0.842E-03  0.888E-03
   9.500  0.883E-03  0.926E-03  0.883E-03  0.926E-03
   9.550  0.920E-03  0.958E-03  0.920E-03  0.958E-03
   9.600  0.952E-03  0.993E-03  0.952E-03  0.993E-03
   9.650  0.986E-03  0.103E-02  0.986E-03  0.103E-02
   9.700  0.102E-02  0.106E-02  0.102E-02  0.106E-02
   9.750  0.106E-02  0.109E-02  0.106E-02  0.109E-02
   9.800  0.109E-02  0.112E-02  0.109E-02  0.112E-02
   9.850  0.112E-02  0.115E-02  0.112E-02  0.115E-02
   9.900  0.115E-02  0.118E-02  0.115E-02  0.118E-02
   9.950  0.118E-02  0.122E-02  0.118E-02  0.122E-02
  10.000  0.121E-02  0.124E-02  0.121E-02  0.124E-02
  10.050  0.124E-02  0.127E-02  0.124E-02  0.127E-02
  10.100  0.126E-02  0.129E-02  0.126E-02  0.129E-02
  10.150  0.129E-02  0.132E-02  0.129E-02  0.132E-02
  10.200  0.132E-02  0.135E-02  0.132E-02  0.135E-02
  10.250  0.134E-02  0.137E-02  0.134E-02  0.137E-02
  10.300  0.137E-02  0.140E-02  0.137E-02  0.140E-02
  10.350  0.139E-02  0.142E-02  0.139E-02  0.142E-02
  10.400  0.142E-02  0.144E-02  0.142E-02  0.144E-02
  10.450  0.144E-02  0.146E-02  0.144E-02  0.146E-02
  10.500  0.146E-02  0.148E-02  0.146E-02  0.148E-02
  10.550  0.148E-02  0.151E-02  0.148E-02  0.151E-02
  10.600  0.151E-02  0.152E-02  0.151E-02  0.152E-02
  10.650  0.152E-02  0.154E-02  0.152E-02  0.154E-02
  10.700  0.154E-02  0.156E-02  0.154E-02  0.156E-02
  10.750  0.156E-02  0.158E-02  0.156E-02  0.158E-02
  10.800  0.158E-02  0.160E-02  0.158E-02  0.160E-02
  10.850  0.160E-02  0.161E-02  0.160E-02  0.161E-02
  10.900  0.162E-02  0.163E-02  0.162E-02  0.163E-02
  10.950  0.164E-02  0.165E-02  0.164E-02  0.165E-02
  11.000  0.165E-02  0.166E-02  0.165E-02  0.166E-02
  11.050  0.166E-02  0.167E-02  0.166E-02  0.167E-02
  11.100  0.168E-02  0.168E-02  0.168E-02  0.168E-02
  11.150  0.169E-02  0.170E-02  0.169E-02  0.170E-02
  11.200  0.171E-02  0.171E-02  0.171E-02  0.171E-02
  11.250  0.172E-02  0.172E-02  0.172E-02  0.172E-02
  11.300  0.174E-02  0.173E-02  0.174E-02  0.173E-02
  11.350  0.175E-02  0.174E-02  0.175E-02  0.174E-02
  11.400  0.176E-02  0.175E-02  0.176E-02  0.175E-02
  11.450  0.177E-02  0.176E-02  0.177E-02  0.176E-02
  11.500  0.178E-02  0.177E-02  0.178E-02  0.177E-02
  11.550  0.179E-02  0.178E-02  0.179E-02  0.178E-02
  11.600  0.180E-02  0.178E-02  0.180E-02  0.178E-02
  11.650  0.181E-02  0.179E-02  0.181E-02  0.179E-02
  11.700  0.182E-02  0.180E-02  0.182E-02  0.180E-02
  11.750  0.182E-02  0.180E-02  0.182E-02  0.180E-02
  11.800  0.183E-02  0.181E-02  0.183E-02  0.181E-02
  11.850  0.184E-02  0.181E-02  0.184E-02  0.181E-02
  11.900  0.185E-02  0.182E-02  0.185E-02  0.182E-02
  11.950  0.185E-02  0.182E-02  0.185E-02  0.182E-02
  12.000  0.185E-02  0.182E-02  0.185E-02  0.182E-02
  12.050  0.186E-02  0.182E-02  0.186E-02  0.182E-02
  12.100  0.187E-02  0.182E-02  0.187E-02  0.182E-02
  12.150  0.187E-02  0.183E-02  0.187E-02  0.183E-02
  12.200  0.187E-02  0.182E-02  0.187E-02  0.182E-02
  12.250  0.187E-02  0.182E-02  0.187E-02  0.182E-02
  12.300  0.188E-02  0.182E-02  0.188E-02  0.182E-02
  12.350  0.187E-02  0.182E-02  0.187E-02  0.182E-02
  12.400  0.188E-02  0.182E-02  0.188E-02  0.182E-02
  12.450  0.187E-02  0.181E-02  0.187E-02  0.181E-02
  12.500  0.188E-02  0.181E-02  0.188E-02  0.181E-02
  12.550  0.187E-02  0.180E-02  0.187E-02  0.180E-02
  12.600  0.187E-02  0.180E-02  0.187E-02  0.180E-02
  12.650  0.187E-02  0.179E-02  0.187E-02  0.179E-02
  12.700  0.186E-02  0.179E-02  0.186E-02  0.179E-02
  12.750  0.185E-02  0.178E-02  0.185E-02  0.178E-02
  12.800  0.185E-02  0.177E-02  0.185E-02  0.177E-02
  12.850  0.184E-02  0.176E-02  0.184E-02  0.176E-02
  12.900  0.183E-02  0.175E-02  0.183E-02  0.175E-02
  12.950  0.182E-02  0.173E-02  0.182E-02  0.173E-02
  13.000  0.179E-02  0.172E-02  0.179E-02  0.172E-02
  13.050  0.177E-02  0.171E-02  0.177E-02  0.171E-02
  13.100  0.173E-02  0.169E-02  0.173E-02  0.169E-02
  13.150  0.170E-02  0.167E-02  0.170E-02  0.167E-02
  13.200  0.162E-02  0.166E-02  0.162E-02  0.166E-02
  13.250  0.154E-02  0.164E-02  0.154E-02  0.164E-02
  13.300  0.145E-02  0.162E-02  0.145E-02  0.162E-02
  13.350  0.138E-02  0.159E-02  0.138E-02  0.159E-02
  13.400  0.129E-02  0.156E-02  0.129E-02  0.156E-02
  13.450  0.121E-02  0.153E-02  0.121E-02  0.153E-02
  13.500  0.113E-02  0.149E-02  0.113E-02  0.149E-02
  13.550  0.104E-02  0.143E-02  0.104E-02  0.143E-02
  13.600  0.947E-03  0.136E-02  0.947E-03  0.136E-02
  13.650  0.866E-03  0.130E-02  0.866E-03  0.130E-02
  13.700  0.783E-03  0.123E-02  0.783E-03  0.123E-02
  13.750  0.696E-03  0.117E-02  0.696E-03  0.117E-02
  13.800  0.621E-03  0.110E-02  0.621E-03  0.110E-02
  13.850  0.552E-03  0.104E-02  0.552E-03  0.104E-02
  13.900  0.486E-03  0.965E-03  0.486E-03  0.965E-03
  13.950  0.427E-03  0.908E-03  0.427E-03  0.908E-03
  14.000  0.375E-03  0.842E-03  0.375E-03  0.842E-03
  14.050  0.330E-03  0.778E-03  0.330E-03  0.778E-03
  14.100  0.288E-03  0.715E-03  0.288E-03  0.715E-03
  14.150  0.257E-03  0.664E-03  0.257E-03  0.664E-03
  14.200  0.200E-03  0.599E-03  0.200E-03  0.599E-03
  14.250  0.170E-03  0.541E-03  0.170E-03  0.541E-03
  14.300  0.110E-03  0.490E-03  0.110E-03  0.490E-03
  14.350  0.123E-03  0.444E-03  0.123E-03  0.444E-03
  14.400  0.147E-03  0.393E-03  0.147E-03  0.393E-03
  14.450  0.162E-03  0.349E-03  0.162E-03  0.349E-03
  14.500  0.186E-03  0.312E-03  0.186E-03  0.312E-03
  14.550  0.217E-03  0.273E-03  0.217E-03  0.273E-03
  14.600  0.256E-03  0.240E-03  0.256E-03  0.240E-03
  14.650  0.306E-03  0.223E-03  0.306E-03  0.223E-03
  14.700  0.377E-03  0.207E-03  0.377E-03  0.207E-03
  14.750  0.490E-03  0.121E-03  0.490E-03  0.121E-03
  14.800  0.598E-03  0.659E-04  0.598E-03  0.659E-04
  14.850  0.690E-03  0.753E-04  0.690E-03  0.753E-04
  14.900  0.783E-03  0.815E-04  0.783E-03  0.815E-04
  14.950  0.867E-03  0.840E-04  0.867E-03  0.840E-04
  15.000  0.953E-03  0.878E-04  0.953E-03  0.878E-04
  15.050  0.104E-02  0.103E-03  0.104E-02  0.103E-03
  15.100  0.807E-03  0.126E-03  0.807E-03  0.126E-03
  15.150  0.709E-03  0.156E-03  0.709E-03  0.156E-03
  15.200  0.679E-03  0.190E-03  0.679E-03  0.190E-03
  15.250  0.692E-03  0.235E-03  0.692E-03  0.235E-03
  15.300  0.799E-03  0.292E-03  0.799E-03  0.292E-03
  15.350  0.866E-03  0.368E-03  0.866E-03  0.368E-03
  15.400  0.727E-03  0.485E-03  0.727E-03  0.485E-03
  15.450  0.715E-03  0.605E-03  0.715E-03  0.605E-03
  15.500  0.852E-03  0.694E-03  0.852E-03  0.694E-03
  15.550  0.559E-03  0.792E-03  0.559E-03  0.792E-03
  15.600  0.602E-03  0.876E-03  0.602E-03  0.876E-03
  15.650  0.552E-03  0.981E-03  0.552E-03  0.981E-03
  15.700  0.588E-03  0.107E-02  0.588E-03  0.107E-02
  15.750  0.522E-03  0.937E-03  0.522E-03  0.937E-03
  15.800  0.474E-03  0.719E-03  0.474E-03  0.719E-03
  15.850  0.445E-03  0.666E-03  0.445E-03  0.666E-03
  15.900  0.424E-03  0.660E-03  0.424E-03  0.660E-03
  15.950  0.374E-03  0.741E-03  0.374E-03  0.741E-03
  16.000  0.343E-03  0.895E-03  0.343E-03  0.895E-03
  16.050  0.319E-03  0.722E-03  0.319E-03  0.722E-03
  16.100  0.320E-03  0.652E-03  0.320E-03  0.652E-03
  16.150  0.324E-03  0.607E-03  0.324E-03  0.607E-03
  16.200  0.358E-03  0.662E-03  0.358E-03  0.662E-03
  16.250  0.432E-03  0.571E-03  0.432E-03  0.571E-03
  16.300  0.415E-03  0.554E-03  0.415E-03  0.554E-03
  16.350  0.406E-03  0.610E-03  0.406E-03  0.610E-03
  16.400  0.386E-03  0.659E-03  0.386E-03  0.659E-03
  16.450  0.381E-03  0.515E-03  0.381E-03  0.515E-03
  16.500  0.361E-03  0.488E-03  0.361E-03  0.488E-03
  16.550  0.348E-03  0.399E-03  0.348E-03  0.399E-03
  16.600  0.345E-03  0.349E-03  0.345E-03  0.349E-03
  16.650  0.330E-03  0.321E-03  0.330E-03  0.321E-03
  16.700  0.325E-03  0.308E-03  0.325E-03  0.308E-03
  16.750  0.324E-03  0.300E-03  0.324E-03  0.300E-03
  16.800  0.321E-03  0.293E-03  0.321E-03  0.293E-03
  16.850  0.310E-03  0.296E-03  0.310E-03  0.296E-03
  16.900  0.313E-03  0.320E-03  0.313E-03  0.320E-03
  16.950  0.321E-03  0.368E-03  0.321E-03  0.368E-03
  17.000  0.340E-03  0.352E-03  0.340E-03  0.352E-03
  17.050  0.361E-03  0.340E-03  0.361E-03  0.340E-03
  17.100  0.358E-03  0.326E-03  0.358E-03  0.326E-03
  17.150  0.345E-03  0.314E-03  0.345E-03  0.314E-03
  17.200  0.347E-03  0.300E-03  0.347E-03  0.300E-03
  17.250  0.365E-03  0.280E-03  0.365E-03  0.280E-03
  17.300  0.382E-03  0.276E-03  0.382E-03  0.276E-03
  17.350  0.395E-03  0.273E-03  0.395E-03  0.273E-03
  17.400  0.413E-03  0.266E-03  0.413E-03  0.266E-03
  17.450  0.432E-03  0.263E-03  0.432E-03  0.263E-03
  17.500  0.448E-03  0.265E-03  0.448E-03  0.265E-03
  17.550  0.460E-03  0.264E-03  0.460E-03  0.264E-03
  17.600  0.458E-03  0.256E-03  0.458E-03  0.256E-03
  17.650  0.468E-03  0.259E-03  0.468E-03  0.259E-03
  17.700  0.475E-03  0.258E-03  0.475E-03  0.258E-03
  17.750  0.480E-03  0.262E-03  0.480E-03  0.262E-03
  17.800  0.484E-03  0.274E-03  0.484E-03  0.274E-03
  17.850  0.480E-03  0.290E-03  0.480E-03  0.290E-03
  17.900  0.480E-03  0.297E-03  0.480E-03  0.297E-03
  17.950  0.480E-03  0.302E-03  0.480E-03  0.302E-03
  18.000  0.480E-03  0.306E-03  0.480E-03  0.306E-03
  18.050  0.478E-03  0.312E-03  0.478E-03  0.312E-03
  18.100  0.474E-03  0.324E-03  0.474E-03  0.324E-03
  18.150  0.470E-03  0.343E-03  0.470E-03  0.343E-03
  18.200  0.466E-03  0.363E-03  0.466E-03  0.363E-03
  18.250  0.462E-03  0.376E-03  0.462E-03  0.376E-03
  18.300  0.457E-03  0.384E-03  0.457E-03  0.384E-03
  18.350  0.452E-03  0.392E-03  0.452E-03  0.392E-03
  18.400  0.447E-03  0.402E-03  0.447E-03  0.402E-03
  18.450  0.439E-03  0.410E-03  0.439E-03  0.410E-03
  18.500  0.432E-03  0.416E-03  0.432E-03  0.416E-03
  18.550  0.426E-03  0.421E-03  0.426E-03  0.421E-03
  18.600  0.420E-03  0.415E-03  0.420E-03  0.415E-03
  18.650  0.413E-03  0.418E-03  0.413E-03  0.418E-03
  18.700  0.406E-03  0.420E-03  0.406E-03  0.420E-03
  18.750  0.399E-03  0.420E-03  0.399E-03  0.420E-03
  18.800  0.390E-03  0.419E-03  0.390E-03  0.419E-03
  18.850  0.382E-03  0.412E-03  0.382E-03  0.412E-03
  18.900  0.375E-03  0.409E-03  0.375E-03  0.409E-03
  18.950  0.367E-03  0.405E-03  0.367E-03  0.405E-03
  19.000  0.359E-03  0.402E-03  0.359E-03  0.402E-03
  19.050  0.352E-03  0.398E-03  0.352E-03  0.398E-03
  19.100  0.344E-03  0.392E-03  0.344E-03  0.392E-03
  19.150  0.336E-03  0.385E-03  0.336E-03  0.385E-03
  19.200  0.328E-03  0.380E-03  0.328E-03  0.380E-03
  19.250  0.319E-03  0.373E-03  0.319E-03  0.373E-03
  19.300  0.312E-03  0.367E-03  0.312E-03  0.367E-03
  19.350  0.304E-03  0.361E-03  0.304E-03  0.361E-03
  19.400  0.296E-03  0.353E-03  0.296E-03  0.353E-03
  19.450  0.288E-03  0.345E-03  0.288E-03  0.345E-03
  19.500  0.281E-03  0.338E-03  0.281E-03  0.338E-03
  19.550  0.273E-03  0.330E-03  0.273E-03  0.330E-03
  19.600  0.266E-03  0.323E-03  0.266E-03  0.323E-03
  19.650  0.258E-03  0.315E-03  0.258E-03  0.315E-03
  19.700  0.250E-03  0.308E-03  0.250E-03  0.308E-03
  19.750  0.243E-03  0.300E-03  0.243E-03  0.300E-03
  19.800  0.235E-03  0.292E-03  0.235E-03  0.292E-03
  19.850  0.228E-03  0.284E-03  0.228E-03  0.284E-03
  19.900  0.221E-03  0.276E-03  0.221E-03  0.276E-03
  19.950  0.214E-03  0.268E-03  0.214E-03  0.268E-03
  20.000  0.207E-03  0.261E-03  0.207E-03  0.261E-03
  20.050  0.201E-03  0.253E-03  0.201E-03  0.253E-03
  20.100  0.194E-03  0.246E-03  0.194E-03  0.246E-03
  20.150  0.187E-03  0.238E-03  0.187E-03  0.238E-03
  20.200  0.180E-03  0.230E-03  0.180E-03  0.230E-03
  20.250  0.174E-03  0.223E-03  0.174E-03  0.223E-03
  20.300  0.167E-03  0.215E-03  0.167E-03  0.215E-03
  20.350  0.161E-03  0.207E-03  0.161E-03  0.207E-03
  20.400  0.155E-03  0.201E-03  0.155E-03  0.201E-03
  20.450  0.148E-03  0.193E-03  0.148E-03  0.193E-03
  20.500  0.143E-03  0.186E-03  0.143E-03  0.186E-03
  20.550  0.137E-03  0.180E-03  0.137E-03  0.180E-03
  20.600  0.131E-03  0.173E-03  0.131E-03  0.173E-03
  20.650  0.126E-03  0.166E-03  0.126E-03  0.166E-03
  20.700  0.120E-03  0.160E-03  0.120E-03  0.160E-03
  20.750  0.115E-03  0.153E-03  0.115E-03  0.153E-03
  20.800  0.110E-03  0.147E-03  0.110E-03  0.147E-03
  20.850  0.105E-03  0.141E-03  0.105E-03  0.141E-03
  20.900  0.100E-03  0.135E-03  0.100E-03  0.135E-03
  20.950  0.957E-04  0.130E-03  0.957E-04  0.130E-03
  21.000  0.914E-04  0.124E-03  0.914E-04  0.124E-03
  21.050  0.871E-04  0.119E-03  0.871E-04  0.119E-03
  21.100  0.829E-04  0.114E-03  0.829E-04  0.114E-03
  21.150  0.789E-04  0.109E-03  0.789E-04  0.109E-03
  21.200  0.750E-04  0.103E-03  0.750E-04  0.103E-03
  21.250  0.713E-04  0.985E-04  0.713E-04  0.985E-04
  21.300  0.675E-04  0.939E-04  0.675E-04  0.939E-04
  21.350  0.638E-04  0.894E-04  0.638E-04  0.894E-04
  21.400  0.602E-04  0.851E-04  0.602E-04  0.851E-04
  21.450  0.570E-04  0.809E-04  0.570E-04  0.809E-04
  21.500  0.540E-04  0.769E-04  0.540E-04  0.769E-04
  21.550  0.510E-04  0.730E-04  0.510E-04  0.730E-04
  21.600  0.481E-04  0.691E-04  0.481E-04  0.691E-04
  21.650  0.453E-04  0.654E-04  0.453E-04  0.654E-04
  21.700  0.427E-04  0.619E-04  0.427E-04  0.619E-04
  21.750  0.402E-04  0.583E-04  0.402E-04  0.583E-04
  21.800  0.377E-04  0.550E-04  0.377E-04  0.550E-04
  21.850  0.354E-04  0.519E-04  0.354E-04  0.519E-04
  21.900  0.332E-04  0.490E-04  0.332E-04  0.490E-04
  21.950  0.311E-04  0.461E-04  0.311E-04  0.461E-04
  22.000  0.291E-04  0.433E-04  0.291E-04  0.433E-04
  22.050  0.269E-04  0.407E-04  0.269E-04  0.407E-04
  22.100  0.250E-04  0.382E-04  0.250E-04  0.382E-04
  22.150  0.234E-04  0.358E-04  0.234E-04  0.358E-04
  22.200  0.217E-04  0.336E-04  0.217E-04  0.336E-04
  22.250  0.202E-04  0.314E-04  0.202E-04  0.314E-04
  22.300  0.187E-04  0.294E-04  0.187E-04  0.294E-04
  22.350  0.173E-04  0.273E-04  0.173E-04  0.273E-04
  22.400  0.160E-04  0.252E-04  0.160E-04  0.252E-04
  22.450  0.147E-04  0.234E-04  0.147E-04  0.234E-04
  22.500  0.136E-04  0.218E-04  0.136E-04  0.218E-04
  22.550  0.125E-04  0.202E-04  0.125E-04  0.202E-04
  22.600  0.115E-04  0.187E-04  0.115E-04  0.187E-04
  22.650  0.105E-04  0.173E-04  0.105E-04  0.173E-04
  22.700  0.961E-05  0.159E-04  0.961E-05  0.159E-04
  22.750  0.877E-05  0.146E-04  0.877E-05  0.146E-04
  22.800  0.792E-05  0.135E-04  0.792E-05  0.135E-04
  22.850  0.721E-05  0.124E-04  0.721E-05  0.124E-04
  22.900  0.652E-05  0.113E-04  0.652E-05  0.113E-04
  22.950  0.590E-05  0.104E-04  0.590E-05  0.104E-04
  23.000  0.529E-05  0.945E-05  0.529E-05  0.945E-05
  23.050  0.472E-05  0.859E-05  0.472E-05  0.859E-05
  23.100  0.422E-05  0.774E-05  0.422E-05  0.774E-05
  23.150  0.375E-05  0.701E-05  0.375E-05  0.701E-05
  23.200  0.333E-05  0.634E-05  0.333E-05  0.634E-05
  23.250  0.294E-05  0.570E-05  0.294E-05  0.570E-05
  23.300  0.257E-05  0.509E-05  0.257E-05  0.509E-05
  23.350  0.224E-05  0.453E-05  0.224E-05  0.453E-05
  23.400  0.193E-05  0.404E-05  0.193E-05  0.404E-05
  23.450  0.166E-05  0.359E-05  0.166E-05  0.359E-05
  23.500  0.143E-05  0.317E-05  0.143E-05  0.317E-05
  23.550  0.124E-05  0.278E-05  0.124E-05  0.278E-05
  23.600  0.102E-05  0.242E-05  0.102E-05  0.242E-05
  23.650  0.807E-06  0.209E-05  0.807E-06  0.209E-05
  23.700  0.608E-06  0.180E-05  0.608E-06  0.180E-05
  23.750  0.436E-06  0.154E-05  0.436E-06  0.154E-05
  23.800  0.321E-06  0.133E-05  0.321E-06  0.133E-05
  23.850  0.222E-06  0.114E-05  0.222E-06  0.114E-05
  23.900  0.136E-06  0.884E-06  0.136E-06  0.884E-06
  23.950  0.654E-07  0.658E-06  0.654E-07  0.658E-06
  24.000  0.997E-08  0.486E-06  0.997E-08  0.486E-06
  24.050 -0.297E-07  0.368E-06 -0.297E-07  0.368E-06
  24.100 -0.613E-07  0.262E-06 -0.613E-07  0.262E-06
  24.150 -0.861E-07  0.171E-06 -0.861E-07  0.171E-06
  24.200 -0.103E-06  0.975E-07 -0.103E-06  0.975E-07
  24.250 -0.118E-06  0.410E-07 -0.118E-06  0.410E-07
  24.300 -0.128E-06 -0.448E-09 -0.128E-06 -0.448E-09
  24.350 -0.133E-06 -0.357E-07 -0.133E-06 -0.357E-07
  24.400 -0.134E-06 -0.605E-07 -0.134E-06 -0.605E-07
  24.450 -0.130E-06 -0.831E-07 -0.130E-06 -0.831E-07
  24.500 -0.122E-06 -0.101E-06 -0.122E-06 -0.101E-06
  24.550 -0.109E-06 -0.113E-06 -0.109E-06 -0.113E-06
  24.600 -0.105E-06 -0.120E-06 -0.105E-06 -0.120E-06
  24.650 -0.950E-07 -0.120E-06 -0.950E-07 -0.120E-06
  24.700 -0.856E-07 -0.116E-06 -0.856E-07 -0.116E-06
  24.750 -0.766E-07 -0.113E-06 -0.766E-07 -0.113E-06
  24.800 -0.677E-07 -0.988E-07 -0.677E-07 -0.988E-07
  24.850 -0.588E-07 -0.941E-07 -0.588E-07 -0.941E-07
  24.900 -0.500E-07 -0.855E-07 -0.500E-07 -0.855E-07
  24.950 -0.415E-07 -0.773E-07 -0.415E-07 -0.773E-07
  25.000 -0.333E-07 -0.690E-07 -0.333E-07 -0.690E-07
  25.050 -0.257E-07 -0.606E-07 -0.257E-07 -0.606E-07
