# E (eV)  ldosup(E)  ldosdw(E) pdosup(E)  pdosdw(E) 
   5.000  0.000E+00  0.000E+00  0.000E+00  0.000E+00
   5.050  0.000E+00  0.000E+00  0.000E+00  0.000E+00
   5.100  0.000E+00  0.000E+00  0.000E+00  0.000E+00
   5.150  0.000E+00  0.000E+00  0.000E+00  0.000E+00
   5.200  0.000E+00  0.000E+00  0.000E+00  0.000E+00
   5.250  0.000E+00  0.000E+00  0.000E+00  0.000E+00
   5.300  0.000E+00  0.000E+00  0.000E+00  0.000E+00
   5.350  0.000E+00  0.000E+00  0.000E+00  0.000E+00
   5.400  0.000E+00  0.000E+00  0.000E+00  0.000E+00
   5.450  0.000E+00  0.000E+00  0.000E+00  0.000E+00
   5.500  0.000E+00  0.000E+00  0.000E+00  0.000E+00
   5.550  0.000E+00  0.000E+00  0.000E+00  0.000E+00
   5.600  0.000E+00  0.000E+00  0.000E+00  0.000E+00
   5.650  0.000E+00  0.000E+00  0.000E+00  0.000E+00
   5.700  0.000E+00  0.000E+00  0.000E+00  0.000E+00
   5.750  0.000E+00  0.000E+00  0.000E+00  0.000E+00
   5.800  0.000E+00  0.000E+00  0.000E+00  0.000E+00
   5.850  0.000E+00  0.000E+00  0.000E+00  0.000E+00
   5.900  0.000E+00  0.000E+00  0.000E+00  0.000E+00
   5.950  0.000E+00  0.000E+00  0.000E+00  0.000E+00
   6.000  0.000E+00  0.000E+00  0.000E+00  0.000E+00
   6.050  0.000E+00  0.000E+00  0.000E+00  0.000E+00
   6.100  0.000E+00  0.000E+00  0.000E+00  0.000E+00
   6.150  0.000E+00  0.000E+00  0.000E+00  0.000E+00
   6.200  0.000E+00  0.000E+00  0.000E+00  0.000E+00
   6.250  0.000E+00  0.000E+00  0.000E+00  0.000E+00
   6.300  0.000E+00  0.000E+00  0.000E+00  0.000E+00
   6.350  0.000E+00  0.000E+00  0.000E+00  0.000E+00
   6.400  0.000E+00  0.000E+00  0.000E+00  0.000E+00
   6.450  0.000E+00  0.000E+00  0.000E+00  0.000E+00
   6.500  0.000E+00  0.000E+00  0.000E+00  0.000E+00
   6.550  0.000E+00  0.000E+00  0.000E+00  0.000E+00
   6.600  0.000E+00  0.000E+00  0.000E+00  0.000E+00
   6.650  0.000E+00  0.000E+00  0.000E+00  0.000E+00
   6.700  0.000E+00  0.000E+00  0.000E+00  0.000E+00
   6.750  0.000E+00  0.000E+00  0.000E+00  0.000E+00
   6.800  0.000E+00  0.000E+00  0.000E+00  0.000E+00
   6.850  0.000E+00  0.000E+00  0.000E+00  0.000E+00
   6.900  0.000E+00  0.000E+00  0.000E+00  0.000E+00
   6.950  0.000E+00  0.000E+00  0.000E+00  0.000E+00
   7.000  0.000E+00  0.000E+00  0.000E+00  0.000E+00
   7.050  0.000E+00  0.000E+00  0.000E+00  0.000E+00
   7.100  0.000E+00  0.000E+00  0.000E+00  0.000E+00
   7.150  0.000E+00  0.000E+00  0.000E+00  0.000E+00
   7.200  0.000E+00  0.000E+00  0.000E+00  0.000E+00
   7.250  0.000E+00  0.000E+00  0.000E+00  0.000E+00
   7.300  0.000E+00  0.000E+00  0.000E+00  0.000E+00
   7.350  0.000E+00  0.000E+00  0.000E+00  0.000E+00
   7.400  0.000E+00  0.000E+00  0.000E+00  0.000E+00
   7.450  0.000E+00  0.000E+00  0.000E+00  0.000E+00
   7.500  0.000E+00  0.000E+00  0.000E+00  0.000E+00
   7.550  0.000E+00  0.000E+00  0.000E+00  0.000E+00
   7.600  0.000E+00  0.000E+00  0.000E+00  0.000E+00
   7.650  0.000E+00  0.000E+00  0.000E+00  0.000E+00
   7.700  0.000E+00  0.000E+00  0.000E+00  0.000E+00
   7.750  0.000E+00  0.000E+00  0.000E+00  0.000E+00
   7.800  0.000E+00  0.000E+00  0.000E+00  0.000E+00
   7.850  0.000E+00  0.000E+00  0.000E+00  0.000E+00
   7.900  0.000E+00  0.000E+00  0.000E+00  0.000E+00
   7.950  0.000E+00  0.000E+00  0.000E+00  0.000E+00
   8.000  0.000E+00  0.000E+00  0.000E+00  0.000E+00
   8.050  0.000E+00  0.000E+00  0.000E+00  0.000E+00
   8.100  0.000E+00  0.000E+00  0.000E+00  0.000E+00
   8.150  0.000E+00  0.000E+00  0.000E+00  0.000E+00
   8.200  0.000E+00  0.000E+00  0.000E+00  0.000E+00
   8.250  0.000E+00  0.000E+00  0.000E+00  0.000E+00
   8.300  0.000E+00  0.000E+00  0.000E+00  0.000E+00
   8.350  0.000E+00  0.000E+00  0.000E+00  0.000E+00
   8.400  0.000E+00  0.000E+00  0.000E+00  0.000E+00
   8.450  0.000E+00  0.000E+00  0.000E+00  0.000E+00
   8.500  0.000E+00  0.000E+00  0.000E+00  0.000E+00
   8.550  0.000E+00  0.000E+00  0.000E+00  0.000E+00
   8.600  0.000E+00  0.000E+00  0.000E+00  0.000E+00
   8.650  0.000E+00  0.000E+00  0.000E+00  0.000E+00
   8.700  0.000E+00  0.206E-02  0.000E+00  0.206E-02
   8.750  0.302E-02  0.760E-02  0.302E-02  0.760E-02
   8.800  0.794E-02  0.971E-02  0.794E-02  0.971E-02
   8.850  0.101E-01  0.120E-01  0.101E-01  0.120E-01
   8.900  0.122E-01  0.132E-01  0.122E-01  0.132E-01
   8.950  0.134E-01  0.147E-01  0.134E-01  0.147E-01
   9.000  0.149E-01  0.156E-01  0.149E-01  0.156E-01
   9.050  0.158E-01  0.166E-01  0.158E-01  0.166E-01
   9.100  0.168E-01  0.176E-01  0.168E-01  0.176E-01
   9.150  0.178E-01  0.181E-01  0.178E-01  0.181E-01
   9.200  0.183E-01  0.188E-01  0.183E-01  0.188E-01
   9.250  0.191E-01  0.196E-01  0.191E-01  0.196E-01
   9.300  0.198E-01  0.201E-01  0.198E-01  0.201E-01
   9.350  0.203E-01  0.206E-01  0.203E-01  0.206E-01
   9.400  0.208E-01  0.211E-01  0.208E-01  0.211E-01
   9.450  0.213E-01  0.216E-01  0.213E-01  0.216E-01
   9.500  0.219E-01  0.221E-01  0.219E-01  0.221E-01
   9.550  0.223E-01  0.224E-01  0.223E-01  0.224E-01
   9.600  0.226E-01  0.228E-01  0.226E-01  0.228E-01
   9.650  0.230E-01  0.231E-01  0.230E-01  0.231E-01
   9.700  0.234E-01  0.236E-01  0.234E-01  0.236E-01
   9.750  0.239E-01  0.238E-01  0.239E-01  0.238E-01
   9.800  0.241E-01  0.241E-01  0.241E-01  0.241E-01
   9.850  0.244E-01  0.244E-01  0.244E-01  0.244E-01
   9.900  0.247E-01  0.247E-01  0.247E-01  0.247E-01
   9.950  0.251E-01  0.251E-01  0.251E-01  0.251E-01
  10.000  0.254E-01  0.253E-01  0.254E-01  0.253E-01
  10.050  0.257E-01  0.255E-01  0.257E-01  0.255E-01
  10.100  0.259E-01  0.258E-01  0.259E-01  0.258E-01
  10.150  0.262E-01  0.260E-01  0.262E-01  0.260E-01
  10.200  0.265E-01  0.263E-01  0.265E-01  0.263E-01
  10.250  0.268E-01  0.266E-01  0.268E-01  0.266E-01
  10.300  0.270E-01  0.268E-01  0.270E-01  0.268E-01
  10.350  0.273E-01  0.270E-01  0.273E-01  0.270E-01
  10.400  0.275E-01  0.272E-01  0.275E-01  0.272E-01
  10.450  0.278E-01  0.274E-01  0.278E-01  0.274E-01
  10.500  0.280E-01  0.277E-01  0.280E-01  0.277E-01
  10.550  0.283E-01  0.279E-01  0.283E-01  0.279E-01
  10.600  0.286E-01  0.281E-01  0.286E-01  0.281E-01
  10.650  0.288E-01  0.283E-01  0.288E-01  0.283E-01
  10.700  0.290E-01  0.285E-01  0.290E-01  0.285E-01
  10.750  0.293E-01  0.288E-01  0.293E-01  0.288E-01
  10.800  0.295E-01  0.290E-01  0.295E-01  0.290E-01
  10.850  0.298E-01  0.292E-01  0.298E-01  0.292E-01
  10.900  0.301E-01  0.295E-01  0.301E-01  0.295E-01
  10.950  0.304E-01  0.297E-01  0.304E-01  0.297E-01
  11.000  0.306E-01  0.299E-01  0.306E-01  0.299E-01
  11.050  0.308E-01  0.301E-01  0.308E-01  0.301E-01
  11.100  0.311E-01  0.303E-01  0.311E-01  0.303E-01
  11.150  0.314E-01  0.306E-01  0.314E-01  0.306E-01
  11.200  0.317E-01  0.308E-01  0.317E-01  0.308E-01
  11.250  0.320E-01  0.311E-01  0.320E-01  0.311E-01
  11.300  0.323E-01  0.313E-01  0.323E-01  0.313E-01
  11.350  0.326E-01  0.316E-01  0.326E-01  0.316E-01
  11.400  0.329E-01  0.318E-01  0.329E-01  0.318E-01
  11.450  0.333E-01  0.321E-01  0.333E-01  0.321E-01
  11.500  0.336E-01  0.323E-01  0.336E-01  0.323E-01
  11.550  0.340E-01  0.326E-01  0.340E-01  0.326E-01
  11.600  0.343E-01  0.328E-01  0.343E-01  0.328E-01
  11.650  0.346E-01  0.331E-01  0.346E-01  0.331E-01
  11.700  0.351E-01  0.334E-01  0.351E-01  0.334E-01
  11.750  0.355E-01  0.338E-01  0.355E-01  0.338E-01
  11.800  0.359E-01  0.340E-01  0.359E-01  0.340E-01
  11.850  0.364E-01  0.344E-01  0.364E-01  0.344E-01
  11.900  0.369E-01  0.347E-01  0.369E-01  0.347E-01
  11.950  0.374E-01  0.351E-01  0.374E-01  0.351E-01
  12.000  0.378E-01  0.354E-01  0.378E-01  0.354E-01
  12.050  0.384E-01  0.357E-01  0.384E-01  0.357E-01
  12.100  0.391E-01  0.361E-01  0.391E-01  0.361E-01
  12.150  0.396E-01  0.366E-01  0.396E-01  0.366E-01
  12.200  0.404E-01  0.369E-01  0.404E-01  0.369E-01
  12.250  0.411E-01  0.374E-01  0.411E-01  0.374E-01
  12.300  0.420E-01  0.379E-01  0.420E-01  0.379E-01
  12.350  0.427E-01  0.384E-01  0.427E-01  0.384E-01
  12.400  0.437E-01  0.388E-01  0.437E-01  0.388E-01
  12.450  0.446E-01  0.393E-01  0.446E-01  0.393E-01
  12.500  0.459E-01  0.399E-01  0.459E-01  0.399E-01
  12.550  0.471E-01  0.405E-01  0.471E-01  0.405E-01
  12.600  0.485E-01  0.412E-01  0.485E-01  0.412E-01
  12.650  0.503E-01  0.419E-01  0.503E-01  0.419E-01
  12.700  0.520E-01  0.427E-01  0.520E-01  0.427E-01
  12.750  0.543E-01  0.434E-01  0.543E-01  0.434E-01
  12.800  0.574E-01  0.442E-01  0.574E-01  0.442E-01
  12.850  0.609E-01  0.453E-01  0.609E-01  0.453E-01
  12.900  0.661E-01  0.462E-01  0.661E-01  0.462E-01
  12.950  0.775E-01  0.474E-01  0.775E-01  0.474E-01
  13.000  0.824E-01  0.487E-01  0.824E-01  0.487E-01
  13.050  0.820E-01  0.501E-01  0.820E-01  0.501E-01
  13.100  0.823E-01  0.518E-01  0.823E-01  0.518E-01
  13.150  0.972E-01  0.534E-01  0.972E-01  0.534E-01
  13.200  0.941E-01  0.558E-01  0.941E-01  0.558E-01
  13.250  0.905E-01  0.585E-01  0.905E-01  0.585E-01
  13.300  0.874E-01  0.621E-01  0.874E-01  0.621E-01
  13.350  0.844E-01  0.669E-01  0.844E-01  0.669E-01
  13.400  0.813E-01  0.776E-01  0.813E-01  0.776E-01
  13.450  0.780E-01  0.805E-01  0.780E-01  0.805E-01
  13.500  0.752E-01  0.818E-01  0.752E-01  0.818E-01
  13.550  0.717E-01  0.927E-01  0.717E-01  0.927E-01
  13.600  0.682E-01  0.894E-01  0.682E-01  0.894E-01
  13.650  0.650E-01  0.862E-01  0.650E-01  0.862E-01
  13.700  0.613E-01  0.829E-01  0.613E-01  0.829E-01
  13.750  0.572E-01  0.802E-01  0.572E-01  0.802E-01
  13.800  0.532E-01  0.772E-01  0.532E-01  0.772E-01
  13.850  0.489E-01  0.742E-01  0.489E-01  0.742E-01
  13.900  0.443E-01  0.711E-01  0.443E-01  0.711E-01
  13.950  0.399E-01  0.683E-01  0.399E-01  0.683E-01
  14.000  0.353E-01  0.653E-01  0.353E-01  0.653E-01
  14.050  0.309E-01  0.622E-01  0.309E-01  0.622E-01
  14.100  0.267E-01  0.591E-01  0.267E-01  0.591E-01
  14.150  0.228E-01  0.564E-01  0.228E-01  0.564E-01
  14.200  0.143E-01  0.528E-01  0.143E-01  0.528E-01
  14.250  0.836E-02  0.495E-01  0.836E-02  0.495E-01
  14.300  0.251E-02  0.463E-01  0.251E-02  0.463E-01
  14.350  0.335E-02  0.427E-01  0.335E-02  0.427E-01
  14.400  0.487E-02  0.389E-01  0.487E-02  0.389E-01
  14.450  0.432E-02  0.353E-01  0.432E-02  0.353E-01
  14.500  0.390E-02  0.316E-01  0.390E-02  0.316E-01
  14.550  0.291E-02  0.275E-01  0.291E-02  0.275E-01
  14.600  0.157E-02  0.239E-01  0.157E-02  0.239E-01
  14.650  0.927E-03  0.211E-01  0.927E-03  0.211E-01
  14.700  0.102E-02  0.179E-01  0.102E-02  0.179E-01
  14.750  0.214E-02  0.734E-02  0.214E-02  0.734E-02
  14.800  0.346E-02  0.395E-02  0.346E-02  0.395E-02
  14.850  0.434E-02  0.530E-02  0.434E-02  0.530E-02
  14.900  0.488E-02  0.662E-02  0.488E-02  0.662E-02
  14.950  0.548E-02  0.693E-02  0.548E-02  0.693E-02
  15.000  0.604E-02  0.614E-02  0.604E-02  0.614E-02
  15.050  0.669E-02  0.531E-02  0.669E-02  0.531E-02
  15.100  0.722E-02  0.493E-02  0.722E-02  0.493E-02
  15.150  0.780E-02  0.410E-02  0.780E-02  0.410E-02
  15.200  0.860E-02  0.255E-02  0.860E-02  0.255E-02
  15.250  0.979E-02  0.124E-02  0.979E-02  0.124E-02
  15.300  0.123E-01  0.561E-03  0.123E-01  0.561E-03
  15.350  0.140E-01  0.613E-03  0.140E-01  0.613E-03
  15.400  0.114E-01  0.183E-02  0.114E-01  0.183E-02
  15.450  0.102E-01  0.279E-02  0.102E-01  0.279E-02
  15.500  0.101E-01  0.355E-02  0.101E-01  0.355E-02
  15.550  0.786E-02  0.416E-02  0.786E-02  0.416E-02
  15.600  0.708E-02  0.467E-02  0.708E-02  0.467E-02
  15.650  0.676E-02  0.529E-02  0.676E-02  0.529E-02
  15.700  0.722E-02  0.592E-02  0.722E-02  0.592E-02
  15.750  0.648E-02  0.664E-02  0.648E-02  0.664E-02
  15.800  0.586E-02  0.730E-02  0.586E-02  0.730E-02
  15.850  0.538E-02  0.819E-02  0.538E-02  0.819E-02
  15.900  0.497E-02  0.936E-02  0.497E-02  0.936E-02
  15.950  0.427E-02  0.114E-01  0.427E-02  0.114E-01
  16.000  0.383E-02  0.142E-01  0.383E-02  0.142E-01
  16.050  0.347E-02  0.114E-01  0.347E-02  0.114E-01
  16.100  0.344E-02  0.102E-01  0.344E-02  0.102E-01
  16.150  0.343E-02  0.935E-02  0.343E-02  0.935E-02
  16.200  0.371E-02  0.873E-02  0.371E-02  0.873E-02
  16.250  0.434E-02  0.759E-02  0.434E-02  0.759E-02
  16.300  0.423E-02  0.683E-02  0.423E-02  0.683E-02
  16.350  0.436E-02  0.663E-02  0.436E-02  0.663E-02
  16.400  0.481E-02  0.632E-02  0.481E-02  0.632E-02
  16.450  0.678E-02  0.579E-02  0.678E-02  0.579E-02
  16.500  0.673E-02  0.535E-02  0.673E-02  0.535E-02
  16.550  0.520E-02  0.431E-02  0.520E-02  0.431E-02
  16.600  0.448E-02  0.366E-02  0.448E-02  0.366E-02
  16.650  0.399E-02  0.325E-02  0.399E-02  0.325E-02
  16.700  0.369E-02  0.301E-02  0.369E-02  0.301E-02
  16.750  0.352E-02  0.278E-02  0.352E-02  0.278E-02
  16.800  0.340E-02  0.264E-02  0.340E-02  0.264E-02
  16.850  0.325E-02  0.263E-02  0.325E-02  0.263E-02
  16.900  0.328E-02  0.280E-02  0.328E-02  0.280E-02
  16.950  0.341E-02  0.315E-02  0.341E-02  0.315E-02
  17.000  0.376E-02  0.320E-02  0.376E-02  0.320E-02
  17.050  0.428E-02  0.353E-02  0.428E-02  0.353E-02
  17.100  0.481E-02  0.449E-02  0.481E-02  0.449E-02
  17.150  0.540E-02  0.107E-01  0.540E-02  0.107E-01
  17.200  0.504E-02  0.533E-02  0.504E-02  0.533E-02
  17.250  0.518E-02  0.411E-02  0.518E-02  0.411E-02
  17.300  0.544E-02  0.346E-02  0.544E-02  0.346E-02
  17.350  0.573E-02  0.306E-02  0.573E-02  0.306E-02
  17.400  0.614E-02  0.274E-02  0.614E-02  0.274E-02
  17.450  0.659E-02  0.254E-02  0.659E-02  0.254E-02
  17.500  0.701E-02  0.241E-02  0.701E-02  0.241E-02
  17.550  0.738E-02  0.232E-02  0.738E-02  0.232E-02
  17.600  0.754E-02  0.220E-02  0.754E-02  0.220E-02
  17.650  0.791E-02  0.220E-02  0.791E-02  0.220E-02
  17.700  0.824E-02  0.219E-02  0.824E-02  0.219E-02
  17.750  0.854E-02  0.225E-02  0.854E-02  0.225E-02
  17.800  0.882E-02  0.244E-02  0.882E-02  0.244E-02
  17.850  0.897E-02  0.278E-02  0.897E-02  0.278E-02
  17.900  0.921E-02  0.310E-02  0.921E-02  0.310E-02
  17.950  0.945E-02  0.355E-02  0.945E-02  0.355E-02
  18.000  0.969E-02  0.455E-02  0.969E-02  0.455E-02
  18.050  0.990E-02  0.425E-02  0.990E-02  0.425E-02
  18.100  0.101E-01  0.427E-02  0.101E-01  0.427E-02
  18.150  0.102E-01  0.448E-02  0.102E-01  0.448E-02
  18.200  0.104E-01  0.479E-02  0.104E-01  0.479E-02
  18.250  0.105E-01  0.508E-02  0.105E-01  0.508E-02
  18.300  0.107E-01  0.535E-02  0.107E-01  0.535E-02
  18.350  0.109E-01  0.566E-02  0.109E-01  0.566E-02
  18.400  0.110E-01  0.600E-02  0.110E-01  0.600E-02
  18.450  0.111E-01  0.633E-02  0.111E-01  0.633E-02
  18.500  0.112E-01  0.664E-02  0.112E-01  0.664E-02
  18.550  0.113E-01  0.694E-02  0.113E-01  0.694E-02
  18.600  0.114E-01  0.708E-02  0.114E-01  0.708E-02
  18.650  0.115E-01  0.736E-02  0.115E-01  0.736E-02
  18.700  0.116E-01  0.764E-02  0.116E-01  0.764E-02
  18.750  0.116E-01  0.788E-02  0.116E-01  0.788E-02
  18.800  0.117E-01  0.812E-02  0.117E-01  0.812E-02
  18.850  0.117E-01  0.824E-02  0.117E-01  0.824E-02
  18.900  0.118E-01  0.845E-02  0.118E-01  0.845E-02
  18.950  0.118E-01  0.863E-02  0.118E-01  0.863E-02
  19.000  0.119E-01  0.882E-02  0.119E-01  0.882E-02
  19.050  0.119E-01  0.901E-02  0.119E-01  0.901E-02
  19.100  0.120E-01  0.914E-02  0.120E-01  0.914E-02
  19.150  0.120E-01  0.924E-02  0.120E-01  0.924E-02
  19.200  0.120E-01  0.940E-02  0.120E-01  0.940E-02
  19.250  0.119E-01  0.953E-02  0.119E-01  0.953E-02
  19.300  0.120E-01  0.966E-02  0.120E-01  0.966E-02
  19.350  0.120E-01  0.977E-02  0.120E-01  0.977E-02
  19.400  0.119E-01  0.986E-02  0.119E-01  0.986E-02
  19.450  0.119E-01  0.990E-02  0.119E-01  0.990E-02
  19.500  0.119E-01  0.100E-01  0.119E-01  0.100E-01
  19.550  0.119E-01  0.101E-01  0.119E-01  0.101E-01
  19.600  0.119E-01  0.101E-01  0.119E-01  0.101E-01
  19.650  0.118E-01  0.102E-01  0.118E-01  0.102E-01
  19.700  0.118E-01  0.102E-01  0.118E-01  0.102E-01
  19.750  0.118E-01  0.103E-01  0.118E-01  0.103E-01
  19.800  0.117E-01  0.103E-01  0.117E-01  0.103E-01
  19.850  0.117E-01  0.103E-01  0.117E-01  0.103E-01
  19.900  0.116E-01  0.103E-01  0.116E-01  0.103E-01
  19.950  0.116E-01  0.103E-01  0.116E-01  0.103E-01
  20.000  0.115E-01  0.104E-01  0.115E-01  0.104E-01
  20.050  0.114E-01  0.104E-01  0.114E-01  0.104E-01
  20.100  0.114E-01  0.104E-01  0.114E-01  0.104E-01
  20.150  0.113E-01  0.104E-01  0.113E-01  0.104E-01
  20.200  0.112E-01  0.103E-01  0.112E-01  0.103E-01
  20.250  0.111E-01  0.103E-01  0.111E-01  0.103E-01
  20.300  0.110E-01  0.102E-01  0.110E-01  0.102E-01
  20.350  0.109E-01  0.102E-01  0.109E-01  0.102E-01
  20.400  0.108E-01  0.102E-01  0.108E-01  0.102E-01
  20.450  0.107E-01  0.101E-01  0.107E-01  0.101E-01
  20.500  0.106E-01  0.101E-01  0.106E-01  0.101E-01
  20.550  0.105E-01  0.100E-01  0.105E-01  0.100E-01
  20.600  0.104E-01  0.994E-02  0.104E-01  0.994E-02
  20.650  0.103E-01  0.987E-02  0.103E-01  0.987E-02
  20.700  0.101E-01  0.978E-02  0.101E-01  0.978E-02
  20.750  0.999E-02  0.970E-02  0.999E-02  0.970E-02
  20.800  0.987E-02  0.963E-02  0.987E-02  0.963E-02
  20.850  0.972E-02  0.955E-02  0.972E-02  0.955E-02
  20.900  0.961E-02  0.947E-02  0.961E-02  0.947E-02
  20.950  0.949E-02  0.937E-02  0.949E-02  0.937E-02
  21.000  0.937E-02  0.929E-02  0.937E-02  0.929E-02
  21.050  0.924E-02  0.921E-02  0.924E-02  0.921E-02
  21.100  0.911E-02  0.910E-02  0.911E-02  0.910E-02
  21.150  0.898E-02  0.901E-02  0.898E-02  0.901E-02
  21.200  0.885E-02  0.885E-02  0.885E-02  0.885E-02
  21.250  0.872E-02  0.876E-02  0.872E-02  0.876E-02
  21.300  0.857E-02  0.865E-02  0.857E-02  0.865E-02
  21.350  0.840E-02  0.854E-02  0.840E-02  0.854E-02
  21.400  0.822E-02  0.843E-02  0.822E-02  0.843E-02
  21.450  0.809E-02  0.832E-02  0.809E-02  0.832E-02
  21.500  0.796E-02  0.821E-02  0.796E-02  0.821E-02
  21.550  0.782E-02  0.810E-02  0.782E-02  0.810E-02
  21.600  0.766E-02  0.798E-02  0.766E-02  0.798E-02
  21.650  0.752E-02  0.785E-02  0.752E-02  0.785E-02
  21.700  0.738E-02  0.771E-02  0.738E-02  0.771E-02
  21.750  0.724E-02  0.756E-02  0.724E-02  0.756E-02
  21.800  0.710E-02  0.742E-02  0.710E-02  0.742E-02
  21.850  0.696E-02  0.729E-02  0.696E-02  0.729E-02
  21.900  0.682E-02  0.716E-02  0.682E-02  0.716E-02
  21.950  0.667E-02  0.703E-02  0.667E-02  0.703E-02
  22.000  0.653E-02  0.690E-02  0.653E-02  0.690E-02
  22.050  0.632E-02  0.677E-02  0.632E-02  0.677E-02
  22.100  0.614E-02  0.664E-02  0.614E-02  0.664E-02
  22.150  0.602E-02  0.651E-02  0.602E-02  0.651E-02
  22.200  0.586E-02  0.639E-02  0.586E-02  0.639E-02
  22.250  0.572E-02  0.626E-02  0.572E-02  0.626E-02
  22.300  0.558E-02  0.613E-02  0.558E-02  0.613E-02
  22.350  0.544E-02  0.596E-02  0.544E-02  0.596E-02
  22.400  0.529E-02  0.576E-02  0.529E-02  0.576E-02
  22.450  0.514E-02  0.563E-02  0.514E-02  0.563E-02
  22.500  0.500E-02  0.550E-02  0.500E-02  0.550E-02
  22.550  0.487E-02  0.537E-02  0.487E-02  0.537E-02
  22.600  0.474E-02  0.523E-02  0.474E-02  0.523E-02
  22.650  0.461E-02  0.510E-02  0.461E-02  0.510E-02
  22.700  0.447E-02  0.497E-02  0.447E-02  0.497E-02
  22.750  0.434E-02  0.483E-02  0.434E-02  0.483E-02
  22.800  0.417E-02  0.470E-02  0.417E-02  0.470E-02
  22.850  0.405E-02  0.458E-02  0.405E-02  0.458E-02
  22.900  0.392E-02  0.445E-02  0.392E-02  0.445E-02
  22.950  0.379E-02  0.433E-02  0.379E-02  0.433E-02
  23.000  0.365E-02  0.420E-02  0.365E-02  0.420E-02
  23.050  0.350E-02  0.407E-02  0.350E-02  0.407E-02
  23.100  0.338E-02  0.391E-02  0.338E-02  0.391E-02
  23.150  0.326E-02  0.380E-02  0.326E-02  0.380E-02
  23.200  0.315E-02  0.368E-02  0.315E-02  0.368E-02
  23.250  0.303E-02  0.355E-02  0.303E-02  0.355E-02
  23.300  0.291E-02  0.342E-02  0.291E-02  0.342E-02
  23.350  0.280E-02  0.329E-02  0.280E-02  0.329E-02
  23.400  0.269E-02  0.318E-02  0.269E-02  0.318E-02
  23.450  0.260E-02  0.307E-02  0.260E-02  0.307E-02
  23.500  0.254E-02  0.296E-02  0.254E-02  0.296E-02
  23.550  0.251E-02  0.285E-02  0.251E-02  0.285E-02
  23.600  0.257E-02  0.274E-02  0.257E-02  0.274E-02
  23.650  0.227E-02  0.264E-02  0.227E-02  0.264E-02
  23.700  0.199E-02  0.255E-02  0.199E-02  0.255E-02
  23.750  0.173E-02  0.250E-02  0.173E-02  0.250E-02
  23.800  0.162E-02  0.248E-02  0.162E-02  0.248E-02
  23.850  0.145E-02  0.256E-02  0.145E-02  0.256E-02
  23.900  0.132E-02  0.221E-02  0.132E-02  0.221E-02
  23.950  0.122E-02  0.193E-02  0.122E-02  0.193E-02
  24.000  0.111E-02  0.168E-02  0.111E-02  0.168E-02
  24.050  0.102E-02  0.158E-02  0.102E-02  0.158E-02
  24.100  0.940E-03  0.140E-02  0.940E-03  0.140E-02
  24.150  0.846E-03  0.127E-02  0.846E-03  0.127E-02
  24.200  0.753E-03  0.118E-02  0.753E-03  0.118E-02
  24.250  0.689E-03  0.106E-02  0.689E-03  0.106E-02
  24.300  0.623E-03  0.985E-03  0.623E-03  0.985E-03
  24.350  0.562E-03  0.899E-03  0.562E-03  0.899E-03
  24.400  0.502E-03  0.799E-03  0.502E-03  0.799E-03
  24.450  0.445E-03  0.717E-03  0.445E-03  0.717E-03
  24.500  0.408E-03  0.653E-03  0.408E-03  0.653E-03
  24.550  0.363E-03  0.589E-03  0.363E-03  0.589E-03
  24.600  0.313E-03  0.529E-03  0.313E-03  0.529E-03
  24.650  0.270E-03  0.468E-03  0.270E-03  0.468E-03
  24.700  0.232E-03  0.415E-03  0.232E-03  0.415E-03
  24.750  0.197E-03  0.402E-03  0.197E-03  0.402E-03
  24.800  0.164E-03  0.314E-03  0.164E-03  0.314E-03
  24.850  0.135E-03  0.282E-03  0.135E-03  0.282E-03
  24.900  0.109E-03  0.241E-03  0.109E-03  0.241E-03
  24.950  0.864E-04  0.204E-03  0.864E-04  0.204E-03
  25.000  0.665E-04  0.171E-03  0.665E-04  0.171E-03
  25.050  0.497E-04  0.140E-03  0.497E-04  0.140E-03
