# E (eV)  ldosup(E)  ldosdw(E) pdosup(E)  pdosdw(E)  pdosup(E)  pdosdw(E)  pdosup(E)  pdosdw(E) 
   5.000  0.000E+00  0.000E+00  0.000E+00  0.000E+00  0.000E+00  0.000E+00  0.000E+00  0.000E+00
   5.050  0.000E+00  0.000E+00  0.000E+00  0.000E+00  0.000E+00  0.000E+00  0.000E+00  0.000E+00
   5.100  0.000E+00  0.000E+00  0.000E+00  0.000E+00  0.000E+00  0.000E+00  0.000E+00  0.000E+00
   5.150  0.000E+00  0.000E+00  0.000E+00  0.000E+00  0.000E+00  0.000E+00  0.000E+00  0.000E+00
   5.200  0.000E+00  0.000E+00  0.000E+00  0.000E+00  0.000E+00  0.000E+00  0.000E+00  0.000E+00
   5.250  0.000E+00  0.000E+00  0.000E+00  0.000E+00  0.000E+00  0.000E+00  0.000E+00  0.000E+00
   5.300  0.000E+00  0.000E+00  0.000E+00  0.000E+00  0.000E+00  0.000E+00  0.000E+00  0.000E+00
   5.350  0.000E+00  0.000E+00  0.000E+00  0.000E+00  0.000E+00  0.000E+00  0.000E+00  0.000E+00
   5.400  0.000E+00  0.000E+00  0.000E+00  0.000E+00  0.000E+00  0.000E+00  0.000E+00  0.000E+00
   5.450  0.000E+00  0.000E+00  0.000E+00  0.000E+00  0.000E+00  0.000E+00  0.000E+00  0.000E+00
   5.500  0.000E+00  0.000E+00  0.000E+00  0.000E+00  0.000E+00  0.000E+00  0.000E+00  0.000E+00
   5.550  0.000E+00  0.000E+00  0.000E+00  0.000E+00  0.000E+00  0.000E+00  0.000E+00  0.000E+00
   5.600  0.000E+00  0.000E+00  0.000E+00  0.000E+00  0.000E+00  0.000E+00  0.000E+00  0.000E+00
   5.650  0.000E+00  0.000E+00  0.000E+00  0.000E+00  0.000E+00  0.000E+00  0.000E+00  0.000E+00
   5.700  0.000E+00  0.000E+00  0.000E+00  0.000E+00  0.000E+00  0.000E+00  0.000E+00  0.000E+00
   5.750  0.000E+00  0.000E+00  0.000E+00  0.000E+00  0.000E+00  0.000E+00  0.000E+00  0.000E+00
   5.800  0.000E+00  0.000E+00  0.000E+00  0.000E+00  0.000E+00  0.000E+00  0.000E+00  0.000E+00
   5.850  0.000E+00  0.000E+00  0.000E+00  0.000E+00  0.000E+00  0.000E+00  0.000E+00  0.000E+00
   5.900  0.000E+00  0.000E+00  0.000E+00  0.000E+00  0.000E+00  0.000E+00  0.000E+00  0.000E+00
   5.950  0.000E+00  0.000E+00  0.000E+00  0.000E+00  0.000E+00  0.000E+00  0.000E+00  0.000E+00
   6.000  0.000E+00  0.000E+00  0.000E+00  0.000E+00  0.000E+00  0.000E+00  0.000E+00  0.000E+00
   6.050  0.000E+00  0.000E+00  0.000E+00  0.000E+00  0.000E+00  0.000E+00  0.000E+00  0.000E+00
   6.100  0.000E+00  0.000E+00  0.000E+00  0.000E+00  0.000E+00  0.000E+00  0.000E+00  0.000E+00
   6.150  0.000E+00  0.000E+00  0.000E+00  0.000E+00  0.000E+00  0.000E+00  0.000E+00  0.000E+00
   6.200  0.000E+00  0.000E+00  0.000E+00  0.000E+00  0.000E+00  0.000E+00  0.000E+00  0.000E+00
   6.250  0.000E+00  0.000E+00  0.000E+00  0.000E+00  0.000E+00  0.000E+00  0.000E+00  0.000E+00
   6.300  0.000E+00  0.000E+00  0.000E+00  0.000E+00  0.000E+00  0.000E+00  0.000E+00  0.000E+00
   6.350  0.000E+00  0.000E+00  0.000E+00  0.000E+00  0.000E+00  0.000E+00  0.000E+00  0.000E+00
   6.400  0.000E+00  0.000E+00  0.000E+00  0.000E+00  0.000E+00  0.000E+00  0.000E+00  0.000E+00
   6.450  0.000E+00  0.000E+00  0.000E+00  0.000E+00  0.000E+00  0.000E+00  0.000E+00  0.000E+00
   6.500  0.000E+00  0.000E+00  0.000E+00  0.000E+00  0.000E+00  0.000E+00  0.000E+00  0.000E+00
   6.550  0.000E+00  0.000E+00  0.000E+00  0.000E+00  0.000E+00  0.000E+00  0.000E+00  0.000E+00
   6.600  0.000E+00  0.000E+00  0.000E+00  0.000E+00  0.000E+00  0.000E+00  0.000E+00  0.000E+00
   6.650  0.000E+00  0.000E+00  0.000E+00  0.000E+00  0.000E+00  0.000E+00  0.000E+00  0.000E+00
   6.700  0.000E+00  0.000E+00  0.000E+00  0.000E+00  0.000E+00  0.000E+00  0.000E+00  0.000E+00
   6.750  0.000E+00  0.000E+00  0.000E+00  0.000E+00  0.000E+00  0.000E+00  0.000E+00  0.000E+00
   6.800  0.000E+00  0.000E+00  0.000E+00  0.000E+00  0.000E+00  0.000E+00  0.000E+00  0.000E+00
   6.850  0.000E+00  0.000E+00  0.000E+00  0.000E+00  0.000E+00  0.000E+00  0.000E+00  0.000E+00
   6.900  0.000E+00  0.000E+00  0.000E+00  0.000E+00  0.000E+00  0.000E+00  0.000E+00  0.000E+00
   6.950  0.000E+00  0.000E+00  0.000E+00  0.000E+00  0.000E+00  0.000E+00  0.000E+00  0.000E+00
   7.000  0.000E+00  0.000E+00  0.000E+00  0.000E+00  0.000E+00  0.000E+00  0.000E+00  0.000E+00
   7.050  0.000E+00  0.000E+00  0.000E+00  0.000E+00  0.000E+00  0.000E+00  0.000E+00  0.000E+00
   7.100  0.000E+00  0.000E+00  0.000E+00  0.000E+00  0.000E+00  0.000E+00  0.000E+00  0.000E+00
   7.150  0.000E+00  0.000E+00  0.000E+00  0.000E+00  0.000E+00  0.000E+00  0.000E+00  0.000E+00
   7.200  0.000E+00  0.000E+00  0.000E+00  0.000E+00  0.000E+00  0.000E+00  0.000E+00  0.000E+00
   7.250  0.000E+00  0.000E+00  0.000E+00  0.000E+00  0.000E+00  0.000E+00  0.000E+00  0.000E+00
   7.300  0.000E+00  0.000E+00  0.000E+00  0.000E+00  0.000E+00  0.000E+00  0.000E+00  0.000E+00
   7.350  0.000E+00  0.000E+00  0.000E+00  0.000E+00  0.000E+00  0.000E+00  0.000E+00  0.000E+00
   7.400  0.000E+00  0.000E+00  0.000E+00  0.000E+00  0.000E+00  0.000E+00  0.000E+00  0.000E+00
   7.450  0.000E+00  0.000E+00  0.000E+00  0.000E+00  0.000E+00  0.000E+00  0.000E+00  0.000E+00
   7.500  0.000E+00  0.000E+00  0.000E+00  0.000E+00  0.000E+00  0.000E+00  0.000E+00  0.000E+00
   7.550  0.000E+00  0.000E+00  0.000E+00  0.000E+00  0.000E+00  0.000E+00  0.000E+00  0.000E+00
   7.600  0.000E+00  0.000E+00  0.000E+00  0.000E+00  0.000E+00  0.000E+00  0.000E+00  0.000E+00
   7.650  0.000E+00  0.000E+00  0.000E+00  0.000E+00  0.000E+00  0.000E+00  0.000E+00  0.000E+00
   7.700  0.000E+00  0.000E+00  0.000E+00  0.000E+00  0.000E+00  0.000E+00  0.000E+00  0.000E+00
   7.750  0.000E+00  0.000E+00  0.000E+00  0.000E+00  0.000E+00  0.000E+00  0.000E+00  0.000E+00
   7.800  0.000E+00  0.000E+00  0.000E+00  0.000E+00  0.000E+00  0.000E+00  0.000E+00  0.000E+00
   7.850  0.000E+00  0.000E+00  0.000E+00  0.000E+00  0.000E+00  0.000E+00  0.000E+00  0.000E+00
   7.900  0.000E+00  0.000E+00  0.000E+00  0.000E+00  0.000E+00  0.000E+00  0.000E+00  0.000E+00
   7.950  0.000E+00  0.000E+00  0.000E+00  0.000E+00  0.000E+00  0.000E+00  0.000E+00  0.000E+00
   8.000  0.000E+00  0.000E+00  0.000E+00  0.000E+00  0.000E+00  0.000E+00  0.000E+00  0.000E+00
   8.050  0.000E+00  0.000E+00  0.000E+00  0.000E+00  0.000E+00  0.000E+00  0.000E+00  0.000E+00
   8.100  0.000E+00  0.000E+00  0.000E+00  0.000E+00  0.000E+00  0.000E+00  0.000E+00  0.000E+00
   8.150  0.000E+00  0.000E+00  0.000E+00  0.000E+00  0.000E+00  0.000E+00  0.000E+00  0.000E+00
   8.200  0.000E+00  0.000E+00  0.000E+00  0.000E+00  0.000E+00  0.000E+00  0.000E+00  0.000E+00
   8.250  0.000E+00  0.000E+00  0.000E+00  0.000E+00  0.000E+00  0.000E+00  0.000E+00  0.000E+00
   8.300  0.000E+00  0.000E+00  0.000E+00  0.000E+00  0.000E+00  0.000E+00  0.000E+00  0.000E+00
   8.350  0.000E+00  0.000E+00  0.000E+00  0.000E+00  0.000E+00  0.000E+00  0.000E+00  0.000E+00
   8.400  0.000E+00  0.000E+00  0.000E+00  0.000E+00  0.000E+00  0.000E+00  0.000E+00  0.000E+00
   8.450  0.000E+00  0.000E+00  0.000E+00  0.000E+00  0.000E+00  0.000E+00  0.000E+00  0.000E+00
   8.500  0.000E+00  0.000E+00  0.000E+00  0.000E+00  0.000E+00  0.000E+00  0.000E+00  0.000E+00
   8.550  0.000E+00  0.000E+00  0.000E+00  0.000E+00  0.000E+00  0.000E+00  0.000E+00  0.000E+00
   8.600  0.000E+00  0.000E+00  0.000E+00  0.000E+00  0.000E+00  0.000E+00  0.000E+00  0.000E+00
   8.650  0.000E+00  0.000E+00  0.000E+00  0.000E+00  0.000E+00  0.000E+00  0.000E+00  0.000E+00
   8.700  0.000E+00  0.000E+00  0.000E+00  0.000E+00  0.000E+00  0.000E+00  0.000E+00  0.000E+00
   8.750  0.000E+00  0.000E+00  0.000E+00  0.000E+00  0.000E+00  0.000E+00  0.000E+00  0.000E+00
   8.800  0.000E+00  0.000E+00  0.000E+00  0.000E+00  0.000E+00  0.000E+00  0.000E+00  0.000E+00
   8.850  0.000E+00  0.000E+00  0.000E+00  0.000E+00  0.000E+00  0.000E+00  0.000E+00  0.000E+00
   8.900  0.000E+00  0.000E+00  0.000E+00  0.000E+00  0.000E+00  0.000E+00  0.000E+00  0.000E+00
   8.950  0.000E+00  0.000E+00  0.000E+00  0.000E+00  0.000E+00  0.000E+00  0.000E+00  0.000E+00
   9.000  0.000E+00  0.000E+00  0.000E+00  0.000E+00  0.000E+00  0.000E+00  0.000E+00  0.000E+00
   9.050  0.000E+00  0.000E+00  0.000E+00  0.000E+00  0.000E+00  0.000E+00  0.000E+00  0.000E+00
   9.100  0.000E+00  0.000E+00  0.000E+00  0.000E+00  0.000E+00  0.000E+00  0.000E+00  0.000E+00
   9.150  0.000E+00  0.000E+00  0.000E+00  0.000E+00  0.000E+00  0.000E+00  0.000E+00  0.000E+00
   9.200  0.000E+00  0.000E+00  0.000E+00  0.000E+00  0.000E+00  0.000E+00  0.000E+00  0.000E+00
   9.250  0.000E+00  0.000E+00  0.000E+00  0.000E+00  0.000E+00  0.000E+00  0.000E+00  0.000E+00
   9.300  0.000E+00  0.000E+00  0.000E+00  0.000E+00  0.000E+00  0.000E+00  0.000E+00  0.000E+00
   9.350  0.282E-07  0.517E-07  0.215E-07  0.300E-07  0.335E-08  0.108E-07  0.335E-08  0.108E-07
   9.400  0.102E-05  0.125E-05  0.289E-06  0.350E-06  0.366E-06  0.450E-06  0.366E-06  0.450E-06
   9.450  0.232E-05  0.267E-05  0.831E-06  0.957E-06  0.743E-06  0.858E-06  0.743E-06  0.858E-06
   9.500  0.432E-05  0.491E-05  0.147E-05  0.166E-05  0.142E-05  0.162E-05  0.142E-05  0.162E-05
   9.550  0.686E-05  0.774E-05  0.224E-05  0.252E-05  0.231E-05  0.261E-05  0.231E-05  0.261E-05
   9.600  0.101E-04  0.113E-04  0.329E-05  0.368E-05  0.339E-05  0.381E-05  0.339E-05  0.381E-05
   9.650  0.135E-04  0.150E-04  0.456E-05  0.509E-05  0.446E-05  0.498E-05  0.446E-05  0.498E-05
   9.700  0.171E-04  0.190E-04  0.576E-05  0.639E-05  0.565E-05  0.629E-05  0.565E-05  0.629E-05
   9.750  0.212E-04  0.235E-04  0.706E-05  0.782E-05  0.707E-05  0.783E-05  0.707E-05  0.783E-05
   9.800  0.261E-04  0.288E-04  0.864E-05  0.954E-05  0.872E-05  0.963E-05  0.872E-05  0.963E-05
   9.850  0.316E-04  0.348E-04  0.104E-04  0.115E-04  0.106E-04  0.116E-04  0.106E-04  0.116E-04
   9.900  0.377E-04  0.414E-04  0.124E-04  0.136E-04  0.126E-04  0.139E-04  0.126E-04  0.139E-04
   9.950  0.435E-04  0.477E-04  0.145E-04  0.159E-04  0.145E-04  0.159E-04  0.145E-04  0.159E-04
  10.000  0.495E-04  0.542E-04  0.164E-04  0.180E-04  0.165E-04  0.181E-04  0.165E-04  0.181E-04
  10.050  0.560E-04  0.611E-04  0.186E-04  0.203E-04  0.187E-04  0.204E-04  0.187E-04  0.204E-04
  10.100  0.631E-04  0.688E-04  0.210E-04  0.228E-04  0.211E-04  0.230E-04  0.211E-04  0.230E-04
  10.150  0.708E-04  0.769E-04  0.235E-04  0.256E-04  0.236E-04  0.257E-04  0.236E-04  0.257E-04
  10.200  0.789E-04  0.856E-04  0.262E-04  0.284E-04  0.263E-04  0.286E-04  0.263E-04  0.286E-04
  10.250  0.873E-04  0.945E-04  0.289E-04  0.313E-04  0.292E-04  0.316E-04  0.292E-04  0.316E-04
  10.300  0.965E-04  0.104E-03  0.319E-04  0.345E-04  0.323E-04  0.349E-04  0.323E-04  0.349E-04
  10.350  0.106E-03  0.114E-03  0.350E-04  0.378E-04  0.355E-04  0.383E-04  0.355E-04  0.383E-04
  10.400  0.115E-03  0.124E-03  0.379E-04  0.409E-04  0.385E-04  0.415E-04  0.385E-04  0.415E-04
  10.450  0.124E-03  0.134E-03  0.412E-04  0.442E-04  0.415E-04  0.447E-04  0.415E-04  0.447E-04
  10.500  0.134E-03  0.144E-03  0.446E-04  0.478E-04  0.448E-04  0.481E-04  0.448E-04  0.481E-04
  10.550  0.144E-03  0.155E-03  0.478E-04  0.513E-04  0.482E-04  0.517E-04  0.482E-04  0.517E-04
  10.600  0.155E-03  0.166E-03  0.514E-04  0.549E-04  0.519E-04  0.554E-04  0.519E-04  0.554E-04
  10.650  0.166E-03  0.177E-03  0.551E-04  0.588E-04  0.556E-04  0.593E-04  0.556E-04  0.593E-04
  10.700  0.178E-03  0.189E-03  0.590E-04  0.627E-04  0.594E-04  0.632E-04  0.594E-04  0.632E-04
  10.750  0.190E-03  0.202E-03  0.631E-04  0.670E-04  0.635E-04  0.674E-04  0.635E-04  0.674E-04
  10.800  0.203E-03  0.215E-03  0.671E-04  0.714E-04  0.678E-04  0.718E-04  0.678E-04  0.718E-04
  10.850  0.215E-03  0.228E-03  0.705E-04  0.750E-04  0.723E-04  0.764E-04  0.723E-04  0.764E-04
  10.900  0.227E-03  0.241E-03  0.742E-04  0.785E-04  0.765E-04  0.810E-04  0.765E-04  0.810E-04
  10.950  0.239E-03  0.253E-03  0.781E-04  0.824E-04  0.807E-04  0.852E-04  0.807E-04  0.852E-04
  11.000  0.252E-03  0.265E-03  0.822E-04  0.864E-04  0.850E-04  0.895E-04  0.850E-04  0.895E-04
  11.050  0.266E-03  0.279E-03  0.865E-04  0.908E-04  0.896E-04  0.940E-04  0.896E-04  0.940E-04
  11.100  0.279E-03  0.292E-03  0.911E-04  0.951E-04  0.941E-04  0.985E-04  0.941E-04  0.985E-04
  11.150  0.294E-03  0.306E-03  0.962E-04  0.999E-04  0.990E-04  0.103E-03  0.990E-04  0.103E-03
  11.200  0.310E-03  0.321E-03  0.102E-03  0.105E-03  0.104E-03  0.108E-03  0.104E-03  0.108E-03
  11.250  0.326E-03  0.337E-03  0.107E-03  0.111E-03  0.109E-03  0.113E-03  0.109E-03  0.113E-03
  11.300  0.343E-03  0.353E-03  0.113E-03  0.116E-03  0.115E-03  0.118E-03  0.115E-03  0.118E-03
  11.350  0.369E-03  0.370E-03  0.130E-03  0.122E-03  0.120E-03  0.124E-03  0.120E-03  0.124E-03
  11.400  0.391E-03  0.394E-03  0.140E-03  0.136E-03  0.126E-03  0.129E-03  0.126E-03  0.129E-03
  11.450  0.405E-03  0.420E-03  0.142E-03  0.151E-03  0.132E-03  0.135E-03  0.132E-03  0.135E-03
  11.500  0.419E-03  0.434E-03  0.144E-03  0.153E-03  0.138E-03  0.140E-03  0.138E-03  0.140E-03
  11.550  0.430E-03  0.449E-03  0.143E-03  0.156E-03  0.144E-03  0.146E-03  0.144E-03  0.146E-03
  11.600  0.442E-03  0.458E-03  0.144E-03  0.154E-03  0.149E-03  0.152E-03  0.149E-03  0.152E-03
  11.650  0.455E-03  0.468E-03  0.145E-03  0.154E-03  0.155E-03  0.157E-03  0.155E-03  0.157E-03
  11.700  0.469E-03  0.481E-03  0.145E-03  0.155E-03  0.162E-03  0.163E-03  0.162E-03  0.163E-03
  11.750  0.482E-03  0.493E-03  0.145E-03  0.155E-03  0.168E-03  0.169E-03  0.168E-03  0.169E-03
  11.800  0.493E-03  0.505E-03  0.146E-03  0.155E-03  0.174E-03  0.175E-03  0.174E-03  0.175E-03
  11.850  0.507E-03  0.515E-03  0.146E-03  0.155E-03  0.180E-03  0.180E-03  0.180E-03  0.180E-03
  11.900  0.523E-03  0.526E-03  0.148E-03  0.154E-03  0.188E-03  0.186E-03  0.188E-03  0.186E-03
  11.950  0.540E-03  0.539E-03  0.149E-03  0.155E-03  0.196E-03  0.192E-03  0.196E-03  0.192E-03
  12.000  0.555E-03  0.553E-03  0.149E-03  0.156E-03  0.203E-03  0.199E-03  0.203E-03  0.199E-03
  12.050  0.572E-03  0.567E-03  0.150E-03  0.156E-03  0.211E-03  0.205E-03  0.211E-03  0.205E-03
  12.100  0.588E-03  0.580E-03  0.151E-03  0.156E-03  0.219E-03  0.212E-03  0.219E-03  0.212E-03
  12.150  0.604E-03  0.593E-03  0.151E-03  0.156E-03  0.226E-03  0.219E-03  0.226E-03  0.219E-03
  12.200  0.620E-03  0.606E-03  0.152E-03  0.156E-03  0.234E-03  0.225E-03  0.234E-03  0.225E-03
  12.250  0.640E-03  0.619E-03  0.153E-03  0.155E-03  0.243E-03  0.232E-03  0.243E-03  0.232E-03
  12.300  0.657E-03  0.633E-03  0.154E-03  0.156E-03  0.251E-03  0.239E-03  0.251E-03  0.239E-03
  12.350  0.679E-03  0.647E-03  0.156E-03  0.156E-03  0.261E-03  0.246E-03  0.261E-03  0.246E-03
  12.400  0.699E-03  0.659E-03  0.157E-03  0.155E-03  0.271E-03  0.252E-03  0.271E-03  0.252E-03
  12.450  0.719E-03  0.674E-03  0.157E-03  0.156E-03  0.281E-03  0.259E-03  0.281E-03  0.259E-03
  12.500  0.739E-03  0.688E-03  0.159E-03  0.156E-03  0.290E-03  0.266E-03  0.290E-03  0.266E-03
  12.550  0.763E-03  0.703E-03  0.160E-03  0.156E-03  0.302E-03  0.273E-03  0.302E-03  0.273E-03
  12.600  0.786E-03  0.717E-03  0.161E-03  0.156E-03  0.312E-03  0.281E-03  0.312E-03  0.281E-03
  12.650  0.814E-03  0.731E-03  0.164E-03  0.156E-03  0.325E-03  0.288E-03  0.325E-03  0.288E-03
  12.700  0.843E-03  0.746E-03  0.165E-03  0.156E-03  0.339E-03  0.295E-03  0.339E-03  0.295E-03
  12.750  0.871E-03  0.762E-03  0.169E-03  0.156E-03  0.351E-03  0.303E-03  0.351E-03  0.303E-03
  12.800  0.900E-03  0.776E-03  0.170E-03  0.156E-03  0.365E-03  0.310E-03  0.365E-03  0.310E-03
  12.850  0.926E-03  0.793E-03  0.171E-03  0.157E-03  0.378E-03  0.318E-03  0.378E-03  0.318E-03
  12.900  0.966E-03  0.809E-03  0.174E-03  0.156E-03  0.396E-03  0.326E-03  0.396E-03  0.326E-03
  12.950  0.101E-02  0.826E-03  0.177E-03  0.157E-03  0.414E-03  0.335E-03  0.414E-03  0.335E-03
  13.000  0.107E-02  0.841E-03  0.184E-03  0.157E-03  0.444E-03  0.342E-03  0.444E-03  0.342E-03
  13.050  0.112E-02  0.856E-03  0.190E-03  0.156E-03  0.466E-03  0.350E-03  0.466E-03  0.350E-03
  13.100  0.121E-02  0.870E-03  0.200E-03  0.156E-03  0.503E-03  0.357E-03  0.503E-03  0.357E-03
  13.150  0.126E-02  0.888E-03  0.210E-03  0.156E-03  0.526E-03  0.366E-03  0.526E-03  0.366E-03
  13.200  0.121E-02  0.905E-03  0.198E-03  0.156E-03  0.508E-03  0.374E-03  0.508E-03  0.374E-03
  13.250  0.123E-02  0.920E-03  0.206E-03  0.157E-03  0.515E-03  0.382E-03  0.515E-03  0.382E-03
  13.300  0.109E-02  0.938E-03  0.160E-03  0.157E-03  0.467E-03  0.390E-03  0.467E-03  0.390E-03
  13.350  0.108E-02  0.958E-03  0.141E-03  0.157E-03  0.472E-03  0.401E-03  0.472E-03  0.401E-03
  13.400  0.106E-02  0.975E-03  0.128E-03  0.157E-03  0.468E-03  0.409E-03  0.468E-03  0.409E-03
  13.450  0.102E-02  0.991E-03  0.119E-03  0.157E-03  0.450E-03  0.417E-03  0.450E-03  0.417E-03
  13.500  0.988E-03  0.101E-02  0.115E-03  0.158E-03  0.437E-03  0.426E-03  0.437E-03  0.426E-03
  13.550  0.944E-03  0.103E-02  0.112E-03  0.158E-03  0.416E-03  0.435E-03  0.416E-03  0.435E-03
  13.600  0.950E-03  0.105E-02  0.114E-03  0.157E-03  0.418E-03  0.445E-03  0.418E-03  0.445E-03
  13.650  0.905E-03  0.106E-02  0.116E-03  0.157E-03  0.394E-03  0.454E-03  0.394E-03  0.454E-03
  13.700  0.872E-03  0.108E-02  0.123E-03  0.157E-03  0.375E-03  0.463E-03  0.375E-03  0.463E-03
  13.750  0.857E-03  0.110E-02  0.134E-03  0.158E-03  0.361E-03  0.470E-03  0.361E-03  0.470E-03
  13.800  0.848E-03  0.112E-02  0.150E-03  0.159E-03  0.349E-03  0.480E-03  0.349E-03  0.480E-03
  13.850  0.879E-03  0.114E-02  0.175E-03  0.159E-03  0.352E-03  0.489E-03  0.352E-03  0.489E-03
  13.900  0.937E-03  0.116E-02  0.211E-03  0.159E-03  0.363E-03  0.502E-03  0.363E-03  0.502E-03
  13.950  0.907E-03  0.117E-02  0.263E-03  0.158E-03  0.322E-03  0.507E-03  0.322E-03  0.507E-03
  14.000  0.905E-03  0.120E-02  0.329E-03  0.157E-03  0.288E-03  0.521E-03  0.288E-03  0.521E-03
  14.050  0.115E-02  0.121E-02  0.453E-03  0.157E-03  0.348E-03  0.525E-03  0.348E-03  0.525E-03
  14.100  0.109E-02  0.123E-02  0.369E-03  0.157E-03  0.360E-03  0.535E-03  0.360E-03  0.535E-03
  14.150  0.105E-02  0.125E-02  0.321E-03  0.157E-03  0.363E-03  0.545E-03  0.363E-03  0.545E-03
  14.200  0.106E-02  0.126E-02  0.332E-03  0.160E-03  0.364E-03  0.550E-03  0.364E-03  0.550E-03
  14.250  0.109E-02  0.123E-02  0.314E-03  0.155E-03  0.386E-03  0.535E-03  0.386E-03  0.535E-03
  14.300  0.115E-02  0.118E-02  0.320E-03  0.143E-03  0.417E-03  0.519E-03  0.417E-03  0.519E-03
  14.350  0.138E-02  0.114E-02  0.421E-03  0.132E-03  0.478E-03  0.502E-03  0.478E-03  0.502E-03
  14.400  0.159E-02  0.109E-02  0.556E-03  0.124E-03  0.515E-03  0.484E-03  0.515E-03  0.484E-03
  14.450  0.129E-02  0.112E-02  0.565E-03  0.119E-03  0.362E-03  0.499E-03  0.362E-03  0.499E-03
  14.500  0.114E-02  0.103E-02  0.618E-03  0.117E-03  0.260E-03  0.454E-03  0.260E-03  0.454E-03
  14.550  0.115E-02  0.985E-03  0.690E-03  0.115E-03  0.229E-03  0.435E-03  0.229E-03  0.435E-03
  14.600  0.193E-02  0.949E-03  0.860E-03  0.115E-03  0.537E-03  0.417E-03  0.537E-03  0.417E-03
  14.650  0.190E-02  0.927E-03  0.898E-03  0.115E-03  0.499E-03  0.406E-03  0.499E-03  0.406E-03
  14.700  0.201E-02  0.907E-03  0.972E-03  0.116E-03  0.518E-03  0.395E-03  0.518E-03  0.395E-03
  14.750  0.208E-02  0.897E-03  0.103E-02  0.119E-03  0.525E-03  0.389E-03  0.525E-03  0.389E-03
  14.800  0.186E-02  0.896E-03  0.836E-03  0.122E-03  0.513E-03  0.387E-03  0.513E-03  0.387E-03
  14.850  0.176E-02  0.970E-03  0.704E-03  0.127E-03  0.527E-03  0.421E-03  0.527E-03  0.421E-03
  14.900  0.193E-02  0.920E-03  0.719E-03  0.135E-03  0.608E-03  0.393E-03  0.608E-03  0.393E-03
  14.950  0.171E-02  0.891E-03  0.586E-03  0.146E-03  0.561E-03  0.372E-03  0.561E-03  0.372E-03
  15.000  0.140E-02  0.861E-03  0.453E-03  0.159E-03  0.472E-03  0.351E-03  0.472E-03  0.351E-03
  15.050  0.982E-03  0.840E-03  0.375E-03  0.177E-03  0.304E-03  0.331E-03  0.304E-03  0.331E-03
  15.100  0.784E-03  0.827E-03  0.336E-03  0.199E-03  0.224E-03  0.314E-03  0.224E-03  0.314E-03
  15.150  0.758E-03  0.831E-03  0.333E-03  0.227E-03  0.212E-03  0.302E-03  0.212E-03  0.302E-03
  15.200  0.839E-03  0.866E-03  0.365E-03  0.264E-03  0.237E-03  0.301E-03  0.237E-03  0.301E-03
  15.250  0.883E-03  0.944E-03  0.381E-03  0.315E-03  0.251E-03  0.315E-03  0.251E-03  0.315E-03
  15.300  0.122E-02  0.102E-02  0.510E-03  0.400E-03  0.354E-03  0.309E-03  0.354E-03  0.309E-03
  15.350  0.128E-02  0.134E-02  0.492E-03  0.645E-03  0.392E-03  0.347E-03  0.392E-03  0.347E-03
  15.400  0.130E-02  0.108E-02  0.411E-03  0.474E-03  0.444E-03  0.302E-03  0.444E-03  0.302E-03
  15.450  0.131E-02  0.942E-03  0.375E-03  0.364E-03  0.468E-03  0.289E-03  0.468E-03  0.289E-03
  15.500  0.104E-02  0.939E-03  0.250E-03  0.354E-03  0.395E-03  0.293E-03  0.395E-03  0.293E-03
  15.550  0.102E-02  0.101E-02  0.246E-03  0.380E-03  0.386E-03  0.314E-03  0.386E-03  0.314E-03
  15.600  0.795E-03  0.110E-02  0.136E-03  0.362E-03  0.329E-03  0.370E-03  0.329E-03  0.370E-03
  15.650  0.764E-03  0.124E-02  0.125E-03  0.506E-03  0.319E-03  0.370E-03  0.319E-03  0.370E-03
  15.700  0.695E-03  0.181E-02  0.112E-03  0.618E-03  0.291E-03  0.596E-03  0.291E-03  0.596E-03
  15.750  0.750E-03  0.153E-02  0.108E-03  0.641E-03  0.321E-03  0.446E-03  0.321E-03  0.446E-03
  15.800  0.831E-03  0.170E-02  0.130E-03  0.738E-03  0.351E-03  0.479E-03  0.351E-03  0.479E-03
  15.850  0.997E-03  0.182E-02  0.148E-03  0.817E-03  0.425E-03  0.499E-03  0.425E-03  0.499E-03
  15.900  0.100E-02  0.194E-02  0.224E-03  0.910E-03  0.390E-03  0.514E-03  0.390E-03  0.514E-03
  15.950  0.111E-02  0.227E-02  0.331E-03  0.996E-03  0.391E-03  0.639E-03  0.391E-03  0.639E-03
  16.000  0.124E-02  0.246E-02  0.441E-03  0.105E-02  0.401E-03  0.703E-03  0.401E-03  0.703E-03
  16.050  0.125E-02  0.262E-02  0.367E-03  0.111E-02  0.442E-03  0.752E-03  0.442E-03  0.752E-03
  16.100  0.122E-02  0.284E-02  0.301E-03  0.116E-02  0.459E-03  0.840E-03  0.459E-03  0.840E-03
  16.150  0.115E-02  0.294E-02  0.291E-03  0.121E-02  0.427E-03  0.864E-03  0.427E-03  0.864E-03
  16.200  0.112E-02  0.300E-02  0.308E-03  0.124E-02  0.405E-03  0.881E-03  0.405E-03  0.881E-03
  16.250  0.123E-02  0.304E-02  0.391E-03  0.126E-02  0.418E-03  0.890E-03  0.418E-03  0.890E-03
  16.300  0.102E-02  0.286E-02  0.292E-03  0.107E-02  0.366E-03  0.892E-03  0.366E-03  0.892E-03
  16.350  0.847E-03  0.307E-02  0.215E-03  0.105E-02  0.316E-03  0.101E-02  0.316E-03  0.101E-02
  16.400  0.780E-03  0.201E-02  0.191E-03  0.876E-03  0.294E-03  0.569E-03  0.294E-03  0.569E-03
  16.450  0.686E-03  0.109E-02  0.138E-03  0.736E-03  0.274E-03  0.176E-03  0.274E-03  0.176E-03
  16.500  0.639E-03  0.810E-03  0.111E-03  0.660E-03  0.264E-03  0.748E-04  0.264E-03  0.748E-04
  16.550  0.619E-03  0.684E-03  0.952E-04  0.595E-03  0.262E-03  0.445E-04  0.262E-03  0.445E-04
  16.600  0.601E-03  0.122E-02  0.876E-04  0.725E-03  0.257E-03  0.250E-03  0.257E-03  0.250E-03
  16.650  0.561E-03  0.869E-03  0.828E-04  0.589E-03  0.239E-03  0.140E-03  0.239E-03  0.140E-03
  16.700  0.532E-03  0.791E-03  0.773E-04  0.532E-03  0.227E-03  0.130E-03  0.227E-03  0.130E-03
  16.750  0.519E-03  0.742E-03  0.843E-04  0.476E-03  0.217E-03  0.133E-03  0.217E-03  0.133E-03
  16.800  0.476E-03  0.709E-03  0.779E-04  0.425E-03  0.199E-03  0.142E-03  0.199E-03  0.142E-03
  16.850  0.415E-03  0.563E-03  0.625E-04  0.219E-03  0.176E-03  0.172E-03  0.176E-03  0.172E-03
  16.900  0.358E-03  0.678E-03  0.513E-04  0.203E-03  0.153E-03  0.238E-03  0.153E-03  0.238E-03
  16.950  0.323E-03  0.804E-03  0.409E-04  0.202E-03  0.141E-03  0.301E-03  0.141E-03  0.301E-03
  17.000  0.275E-03  0.988E-03  0.333E-04  0.242E-03  0.121E-03  0.373E-03  0.121E-03  0.373E-03
  17.050  0.244E-03  0.103E-02  0.272E-04  0.221E-03  0.108E-03  0.406E-03  0.108E-03  0.406E-03
  17.100  0.224E-03  0.961E-03  0.232E-04  0.211E-03  0.100E-03  0.375E-03  0.100E-03  0.375E-03
  17.150  0.219E-03  0.887E-03  0.282E-04  0.192E-03  0.952E-04  0.348E-03  0.952E-04  0.348E-03
  17.200  0.212E-03  0.863E-03  0.247E-04  0.178E-03  0.937E-04  0.342E-03  0.937E-04  0.342E-03
  17.250  0.259E-03  0.856E-03  0.414E-04  0.165E-03  0.109E-03  0.346E-03  0.109E-03  0.346E-03
  17.300  0.282E-03  0.853E-03  0.452E-04  0.155E-03  0.119E-03  0.349E-03  0.119E-03  0.349E-03
  17.350  0.252E-03  0.861E-03  0.425E-04  0.124E-03  0.105E-03  0.369E-03  0.105E-03  0.369E-03
  17.400  0.853E-03  0.864E-03  0.659E-03  0.992E-04  0.970E-04  0.383E-03  0.970E-04  0.383E-03
  17.450  0.769E-03  0.881E-03  0.588E-03  0.102E-03  0.907E-04  0.390E-03  0.907E-04  0.390E-03
  17.500  0.219E-03  0.928E-03  0.419E-04  0.991E-04  0.887E-04  0.415E-03  0.887E-04  0.415E-03
  17.550  0.202E-03  0.995E-03  0.239E-04  0.922E-04  0.893E-04  0.451E-03  0.893E-04  0.451E-03
  17.600  0.213E-03  0.101E-02  0.180E-04  0.108E-03  0.975E-04  0.453E-03  0.975E-04  0.453E-03
  17.650  0.201E-03  0.128E-02  0.131E-04  0.288E-03  0.941E-04  0.496E-03  0.941E-04  0.496E-03
  17.700  0.201E-03  0.136E-02  0.935E-05  0.302E-03  0.959E-04  0.530E-03  0.959E-04  0.530E-03
  17.750  0.215E-03  0.143E-02  0.415E-05  0.436E-03  0.105E-03  0.496E-03  0.105E-03  0.496E-03
  17.800  0.233E-03  0.186E-02  0.364E-05  0.962E-03  0.115E-03  0.449E-03  0.115E-03  0.449E-03
  17.850  0.248E-03  0.139E-02  0.316E-05  0.535E-03  0.122E-03  0.427E-03  0.122E-03  0.427E-03
  17.900  0.252E-03  0.124E-02  0.272E-05  0.405E-03  0.124E-03  0.416E-03  0.124E-03  0.416E-03
  17.950  0.260E-03  0.115E-02  0.241E-05  0.367E-03  0.129E-03  0.391E-03  0.129E-03  0.391E-03
  18.000  0.269E-03  0.110E-02  0.214E-05  0.356E-03  0.134E-03  0.373E-03  0.134E-03  0.373E-03
  18.050  0.282E-03  0.115E-02  0.190E-05  0.406E-03  0.140E-03  0.371E-03  0.140E-03  0.371E-03
  18.100  0.291E-03  0.981E-03  0.170E-05  0.341E-03  0.145E-03  0.320E-03  0.145E-03  0.320E-03
  18.150  0.304E-03  0.921E-03  0.155E-05  0.320E-03  0.151E-03  0.301E-03  0.151E-03  0.301E-03
  18.200  0.317E-03  0.864E-03  0.142E-05  0.297E-03  0.158E-03  0.284E-03  0.158E-03  0.284E-03
  18.250  0.330E-03  0.819E-03  0.131E-05  0.274E-03  0.164E-03  0.273E-03  0.164E-03  0.273E-03
  18.300  0.345E-03  0.702E-03  0.123E-05  0.222E-03  0.172E-03  0.240E-03  0.172E-03  0.240E-03
  18.350  0.359E-03  0.607E-03  0.114E-05  0.163E-03  0.179E-03  0.222E-03  0.179E-03  0.222E-03
  18.400  0.369E-03  0.492E-03  0.106E-05  0.127E-03  0.184E-03  0.183E-03  0.184E-03  0.183E-03
  18.450  0.381E-03  0.464E-03  0.982E-06  0.112E-03  0.190E-03  0.176E-03  0.190E-03  0.176E-03
  18.500  0.388E-03  0.499E-03  0.908E-06  0.133E-03  0.193E-03  0.183E-03  0.193E-03  0.183E-03
  18.550  0.394E-03  0.397E-03  0.845E-06  0.745E-04  0.197E-03  0.161E-03  0.197E-03  0.161E-03
  18.600  0.404E-03  0.300E-03  0.792E-06  0.439E-04  0.201E-03  0.128E-03  0.201E-03  0.128E-03
  18.650  0.416E-03  0.290E-03  0.751E-06  0.389E-04  0.208E-03  0.125E-03  0.208E-03  0.125E-03
  18.700  0.430E-03  0.284E-03  0.719E-06  0.345E-04  0.215E-03  0.125E-03  0.215E-03  0.125E-03
  18.750  0.445E-03  0.281E-03  0.695E-06  0.302E-04  0.222E-03  0.126E-03  0.222E-03  0.126E-03
  18.800  0.462E-03  0.281E-03  0.678E-06  0.264E-04  0.231E-03  0.127E-03  0.231E-03  0.127E-03
  18.850  0.480E-03  0.216E-03  0.667E-06  0.234E-04  0.239E-03  0.961E-04  0.239E-03  0.961E-04
  18.900  0.498E-03  0.188E-03  0.660E-06  0.205E-04  0.249E-03  0.840E-04  0.249E-03  0.840E-04
  18.950  0.517E-03  0.168E-03  0.655E-06  0.185E-04  0.258E-03  0.747E-04  0.258E-03  0.747E-04
  19.000  0.539E-03  0.177E-03  0.652E-06  0.162E-04  0.269E-03  0.804E-04  0.269E-03  0.804E-04
  19.050  0.565E-03  0.171E-03  0.652E-06  0.148E-04  0.282E-03  0.778E-04  0.282E-03  0.778E-04
  19.100  0.598E-03  0.160E-03  0.652E-06  0.132E-04  0.298E-03  0.735E-04  0.298E-03  0.735E-04
  19.150  0.607E-03  0.132E-03  0.658E-06  0.143E-04  0.303E-03  0.587E-04  0.303E-03  0.587E-04
  19.200  0.634E-03  0.121E-03  0.667E-06  0.228E-04  0.317E-03  0.491E-04  0.317E-03  0.491E-04
  19.250  0.625E-03  0.109E-03  0.669E-06  0.184E-04  0.312E-03  0.454E-04  0.312E-03  0.454E-04
  19.300  0.602E-03  0.123E-03  0.660E-06  0.253E-04  0.301E-03  0.490E-04  0.301E-03  0.490E-04
  19.350  0.609E-03  0.150E-03  0.660E-06  0.419E-04  0.304E-03  0.540E-04  0.304E-03  0.540E-04
  19.400  0.619E-03  0.155E-03  0.659E-06  0.431E-04  0.309E-03  0.560E-04  0.309E-03  0.560E-04
  19.450  0.626E-03  0.163E-03  0.659E-06  0.481E-04  0.312E-03  0.576E-04  0.312E-03  0.576E-04
  19.500  0.650E-03  0.196E-03  0.660E-06  0.734E-04  0.324E-03  0.615E-04  0.324E-03  0.615E-04
  19.550  0.566E-03  0.309E-03  0.663E-06  0.171E-03  0.283E-03  0.693E-04  0.283E-03  0.693E-04
  19.600  0.554E-03  0.172E-03  0.665E-06  0.284E-04  0.277E-03  0.720E-04  0.277E-03  0.720E-04
  19.650  0.549E-03  0.164E-03  0.668E-06  0.186E-04  0.274E-03  0.728E-04  0.274E-03  0.728E-04
  19.700  0.526E-03  0.199E-03  0.671E-06  0.165E-04  0.262E-03  0.914E-04  0.262E-03  0.914E-04
  19.750  0.510E-03  0.207E-03  0.672E-06  0.146E-04  0.254E-03  0.964E-04  0.254E-03  0.964E-04
  19.800  0.499E-03  0.194E-03  0.677E-06  0.120E-04  0.249E-03  0.908E-04  0.249E-03  0.908E-04
  19.850  0.485E-03  0.205E-03  0.677E-06  0.524E-05  0.242E-03  0.998E-04  0.242E-03  0.998E-04
  19.900  0.480E-03  0.224E-03  0.680E-06  0.441E-05  0.240E-03  0.110E-03  0.240E-03  0.110E-03
  19.950  0.488E-03  0.245E-03  0.685E-06  0.370E-05  0.244E-03  0.120E-03  0.244E-03  0.120E-03
  20.000  0.499E-03  0.263E-03  0.690E-06  0.314E-05  0.249E-03  0.130E-03  0.249E-03  0.130E-03
  20.050  0.498E-03  0.282E-03  0.699E-06  0.276E-05  0.249E-03  0.140E-03  0.249E-03  0.140E-03
  20.100  0.488E-03  0.297E-03  0.705E-06  0.245E-05  0.244E-03  0.147E-03  0.244E-03  0.147E-03
  20.150  0.478E-03  0.311E-03  0.711E-06  0.221E-05  0.239E-03  0.154E-03  0.239E-03  0.154E-03
  20.200  0.476E-03  0.327E-03  0.717E-06  0.201E-05  0.238E-03  0.162E-03  0.238E-03  0.162E-03
  20.250  0.457E-03  0.343E-03  0.726E-06  0.184E-05  0.228E-03  0.171E-03  0.228E-03  0.171E-03
  20.300  0.442E-03  0.361E-03  0.735E-06  0.168E-05  0.221E-03  0.180E-03  0.221E-03  0.180E-03
  20.350  0.432E-03  0.373E-03  0.742E-06  0.155E-05  0.216E-03  0.186E-03  0.216E-03  0.186E-03
  20.400  0.425E-03  0.371E-03  0.755E-06  0.142E-05  0.212E-03  0.185E-03  0.212E-03  0.185E-03
  20.450  0.419E-03  0.374E-03  0.767E-06  0.133E-05  0.209E-03  0.186E-03  0.209E-03  0.186E-03
  20.500  0.414E-03  0.381E-03  0.779E-06  0.126E-05  0.207E-03  0.190E-03  0.207E-03  0.190E-03
  20.550  0.409E-03  0.390E-03  0.790E-06  0.121E-05  0.204E-03  0.194E-03  0.204E-03  0.194E-03
  20.600  0.403E-03  0.401E-03  0.802E-06  0.117E-05  0.201E-03  0.200E-03  0.201E-03  0.200E-03
  20.650  0.398E-03  0.412E-03  0.815E-06  0.113E-05  0.198E-03  0.205E-03  0.198E-03  0.205E-03
  20.700  0.393E-03  0.425E-03  0.827E-06  0.110E-05  0.196E-03  0.212E-03  0.196E-03  0.212E-03
  20.750  0.387E-03  0.442E-03  0.840E-06  0.106E-05  0.193E-03  0.220E-03  0.193E-03  0.220E-03
  20.800  0.382E-03  0.445E-03  0.853E-06  0.102E-05  0.191E-03  0.222E-03  0.191E-03  0.222E-03
  20.850  0.377E-03  0.452E-03  0.865E-06  0.996E-06  0.188E-03  0.226E-03  0.188E-03  0.226E-03
  20.900  0.371E-03  0.445E-03  0.877E-06  0.969E-06  0.185E-03  0.222E-03  0.185E-03  0.222E-03
  20.950  0.367E-03  0.418E-03  0.892E-06  0.944E-06  0.183E-03  0.208E-03  0.183E-03  0.208E-03
  21.000  0.366E-03  0.411E-03  0.906E-06  0.930E-06  0.183E-03  0.205E-03  0.183E-03  0.205E-03
  21.050  0.362E-03  0.407E-03  0.917E-06  0.918E-06  0.181E-03  0.203E-03  0.181E-03  0.203E-03
  21.100  0.358E-03  0.401E-03  0.926E-06  0.905E-06  0.178E-03  0.200E-03  0.178E-03  0.200E-03
  21.150  0.354E-03  0.395E-03  0.939E-06  0.897E-06  0.177E-03  0.197E-03  0.177E-03  0.197E-03
  21.200  0.351E-03  0.391E-03  0.950E-06  0.893E-06  0.175E-03  0.195E-03  0.175E-03  0.195E-03
  21.250  0.348E-03  0.389E-03  0.961E-06  0.896E-06  0.174E-03  0.194E-03  0.174E-03  0.194E-03
  21.300  0.347E-03  0.388E-03  0.972E-06  0.896E-06  0.173E-03  0.193E-03  0.173E-03  0.193E-03
  21.350  0.345E-03  0.387E-03  0.982E-06  0.900E-06  0.172E-03  0.193E-03  0.172E-03  0.193E-03
  21.400  0.341E-03  0.383E-03  0.995E-06  0.897E-06  0.170E-03  0.191E-03  0.170E-03  0.191E-03
  21.450  0.337E-03  0.380E-03  0.101E-05  0.898E-06  0.168E-03  0.189E-03  0.168E-03  0.189E-03
  21.500  0.338E-03  0.376E-03  0.101E-05  0.896E-06  0.168E-03  0.188E-03  0.168E-03  0.188E-03
  21.550  0.336E-03  0.358E-03  0.102E-05  0.892E-06  0.167E-03  0.179E-03  0.167E-03  0.179E-03
  21.600  0.338E-03  0.354E-03  0.103E-05  0.893E-06  0.169E-03  0.177E-03  0.169E-03  0.177E-03
  21.650  0.336E-03  0.351E-03  0.104E-05  0.894E-06  0.168E-03  0.175E-03  0.168E-03  0.175E-03
  21.700  0.351E-03  0.347E-03  0.105E-05  0.894E-06  0.175E-03  0.173E-03  0.175E-03  0.173E-03
  21.750  0.314E-03  0.343E-03  0.104E-05  0.894E-06  0.157E-03  0.171E-03  0.157E-03  0.171E-03
  21.800  0.306E-03  0.339E-03  0.105E-05  0.894E-06  0.152E-03  0.169E-03  0.152E-03  0.169E-03
  21.850  0.300E-03  0.336E-03  0.105E-05  0.894E-06  0.150E-03  0.167E-03  0.150E-03  0.167E-03
  21.900  0.294E-03  0.332E-03  0.104E-05  0.897E-06  0.147E-03  0.165E-03  0.147E-03  0.165E-03
  21.950  0.288E-03  0.327E-03  0.104E-05  0.899E-06  0.144E-03  0.163E-03  0.144E-03  0.163E-03
  22.000  0.282E-03  0.323E-03  0.104E-05  0.900E-06  0.141E-03  0.161E-03  0.141E-03  0.161E-03
  22.050  0.275E-03  0.318E-03  0.104E-05  0.900E-06  0.137E-03  0.159E-03  0.137E-03  0.159E-03
  22.100  0.272E-03  0.314E-03  0.104E-05  0.901E-06  0.136E-03  0.157E-03  0.136E-03  0.157E-03
  22.150  0.272E-03  0.311E-03  0.104E-05  0.903E-06  0.136E-03  0.155E-03  0.136E-03  0.155E-03
  22.200  0.266E-03  0.309E-03  0.104E-05  0.908E-06  0.133E-03  0.154E-03  0.133E-03  0.154E-03
  22.250  0.245E-03  0.306E-03  0.104E-05  0.912E-06  0.122E-03  0.152E-03  0.122E-03  0.152E-03
  22.300  0.232E-03  0.303E-03  0.103E-05  0.917E-06  0.115E-03  0.151E-03  0.115E-03  0.151E-03
  22.350  0.224E-03  0.301E-03  0.103E-05  0.923E-06  0.112E-03  0.150E-03  0.112E-03  0.150E-03
  22.400  0.218E-03  0.299E-03  0.102E-05  0.927E-06  0.108E-03  0.149E-03  0.108E-03  0.149E-03
  22.450  0.211E-03  0.296E-03  0.102E-05  0.930E-06  0.105E-03  0.148E-03  0.105E-03  0.148E-03
  22.500  0.210E-03  0.294E-03  0.101E-05  0.934E-06  0.104E-03  0.146E-03  0.104E-03  0.146E-03
  22.550  0.204E-03  0.288E-03  0.101E-05  0.938E-06  0.102E-03  0.144E-03  0.102E-03  0.144E-03
  22.600  0.194E-03  0.289E-03  0.100E-05  0.945E-06  0.965E-04  0.144E-03  0.965E-04  0.144E-03
  22.650  0.188E-03  0.290E-03  0.993E-06  0.950E-06  0.935E-04  0.145E-03  0.935E-04  0.145E-03
  22.700  0.182E-03  0.288E-03  0.987E-06  0.950E-06  0.905E-04  0.144E-03  0.905E-04  0.144E-03
  22.750  0.176E-03  0.284E-03  0.978E-06  0.952E-06  0.873E-04  0.142E-03  0.873E-04  0.142E-03
  22.800  0.170E-03  0.291E-03  0.969E-06  0.956E-06  0.845E-04  0.145E-03  0.845E-04  0.145E-03
  22.850  0.165E-03  0.267E-03  0.965E-06  0.949E-06  0.819E-04  0.133E-03  0.819E-04  0.133E-03
  22.900  0.160E-03  0.262E-03  0.954E-06  0.943E-06  0.793E-04  0.131E-03  0.793E-04  0.131E-03
  22.950  0.155E-03  0.256E-03  0.951E-06  0.941E-06  0.773E-04  0.128E-03  0.773E-04  0.128E-03
  23.000  0.154E-03  0.251E-03  0.948E-06  0.942E-06  0.767E-04  0.125E-03  0.767E-04  0.125E-03
  23.050  0.151E-03  0.246E-03  0.941E-06  0.942E-06  0.750E-04  0.122E-03  0.750E-04  0.122E-03
  23.100  0.145E-03  0.239E-03  0.929E-06  0.941E-06  0.721E-04  0.119E-03  0.721E-04  0.119E-03
  23.150  0.150E-03  0.233E-03  0.927E-06  0.940E-06  0.744E-04  0.116E-03  0.744E-04  0.116E-03
  23.200  0.141E-03  0.230E-03  0.913E-06  0.939E-06  0.699E-04  0.115E-03  0.699E-04  0.115E-03
  23.250  0.133E-03  0.228E-03  0.898E-06  0.938E-06  0.661E-04  0.113E-03  0.661E-04  0.113E-03
  23.300  0.127E-03  0.215E-03  0.884E-06  0.937E-06  0.633E-04  0.107E-03  0.633E-04  0.107E-03
  23.350  0.122E-03  0.205E-03  0.869E-06  0.933E-06  0.604E-04  0.102E-03  0.604E-04  0.102E-03
  23.400  0.117E-03  0.199E-03  0.852E-06  0.932E-06  0.582E-04  0.992E-04  0.582E-04  0.992E-04
  23.450  0.113E-03  0.195E-03  0.834E-06  0.930E-06  0.561E-04  0.971E-04  0.561E-04  0.971E-04
  23.500  0.109E-03  0.186E-03  0.814E-06  0.927E-06  0.539E-04  0.923E-04  0.539E-04  0.923E-04
  23.550  0.104E-03  0.180E-03  0.792E-06  0.922E-06  0.518E-04  0.894E-04  0.518E-04  0.894E-04
  23.600  0.990E-04  0.174E-03  0.767E-06  0.919E-06  0.491E-04  0.867E-04  0.491E-04  0.867E-04
  23.650  0.941E-04  0.168E-03  0.742E-06  0.923E-06  0.467E-04  0.837E-04  0.467E-04  0.837E-04
  23.700  0.821E-04  0.163E-03  0.716E-06  0.908E-06  0.407E-04  0.811E-04  0.407E-04  0.811E-04
  23.750  0.754E-04  0.159E-03  0.685E-06  0.911E-06  0.373E-04  0.788E-04  0.373E-04  0.788E-04
  23.800  0.657E-04  0.154E-03  0.659E-06  0.908E-06  0.325E-04  0.767E-04  0.325E-04  0.767E-04
  23.850  0.580E-04  0.150E-03  0.630E-06  0.908E-06  0.287E-04  0.745E-04  0.287E-04  0.745E-04
  23.900  0.541E-04  0.146E-03  0.591E-06  0.906E-06  0.268E-04  0.727E-04  0.268E-04  0.727E-04
  23.950  0.505E-04  0.147E-03  0.554E-06  0.904E-06  0.250E-04  0.730E-04  0.250E-04  0.730E-04
  24.000  0.473E-04  0.147E-03  0.522E-06  0.899E-06  0.234E-04  0.732E-04  0.234E-04  0.732E-04
  24.050  0.440E-04  0.136E-03  0.491E-06  0.889E-06  0.218E-04  0.677E-04  0.218E-04  0.677E-04
  24.100  0.412E-04  0.134E-03  0.454E-06  0.885E-06  0.204E-04  0.668E-04  0.204E-04  0.668E-04
  24.150  0.386E-04  0.126E-03  0.415E-06  0.870E-06  0.191E-04  0.628E-04  0.191E-04  0.628E-04
  24.200  0.362E-04  0.123E-03  0.373E-06  0.858E-06  0.179E-04  0.608E-04  0.179E-04  0.608E-04
  24.250  0.339E-04  0.117E-03  0.343E-06  0.844E-06  0.168E-04  0.581E-04  0.168E-04  0.581E-04
  24.300  0.322E-04  0.113E-03  0.324E-06  0.826E-06  0.159E-04  0.560E-04  0.159E-04  0.560E-04
  24.350  0.316E-04  0.112E-03  0.297E-06  0.810E-06  0.156E-04  0.557E-04  0.156E-04  0.557E-04
  24.400  0.322E-04  0.104E-03  0.252E-06  0.789E-06  0.160E-04  0.518E-04  0.160E-04  0.518E-04
  24.450  0.289E-04  0.907E-04  0.196E-06  0.761E-06  0.143E-04  0.450E-04  0.143E-04  0.450E-04
  24.500  0.231E-04  0.835E-04  0.153E-06  0.733E-06  0.115E-04  0.414E-04  0.115E-04  0.414E-04
  24.550  0.213E-04  0.702E-04  0.121E-06  0.710E-06  0.106E-04  0.348E-04  0.106E-04  0.348E-04
  24.600  0.176E-04  0.617E-04  0.933E-07  0.685E-06  0.873E-05  0.305E-04  0.873E-05  0.305E-04
  24.650  0.144E-04  0.576E-04  0.697E-07  0.664E-06  0.715E-05  0.284E-04  0.715E-05  0.284E-04
  24.700  0.127E-04  0.539E-04  0.501E-07  0.635E-06  0.632E-05  0.266E-04  0.632E-05  0.266E-04
  24.750  0.115E-04  0.503E-04  0.359E-07  0.600E-06  0.571E-05  0.249E-04  0.571E-05  0.249E-04
  24.800  0.106E-04  0.469E-04  0.273E-07  0.573E-06  0.530E-05  0.232E-04  0.530E-05  0.232E-04
  24.850  0.956E-05  0.435E-04  0.213E-07  0.547E-06  0.477E-05  0.215E-04  0.477E-05  0.215E-04
  24.900  0.853E-05  0.407E-04  0.176E-07  0.515E-06  0.426E-05  0.201E-04  0.426E-05  0.201E-04
  24.950  0.754E-05  0.381E-04  0.159E-07  0.482E-06  0.376E-05  0.188E-04  0.376E-05  0.188E-04
  25.000  0.644E-05  0.362E-04  0.153E-07  0.448E-06  0.321E-05  0.179E-04  0.321E-05  0.179E-04
  25.050  0.556E-05  0.350E-04  0.146E-07  0.433E-06  0.277E-05  0.173E-04  0.277E-05  0.173E-04
