# E (eV)  ldosup(E)  ldosdw(E) pdosup(E)  pdosdw(E) 
   5.000  0.000E+00  0.000E+00  0.000E+00  0.000E+00
   5.050  0.000E+00  0.000E+00  0.000E+00  0.000E+00
   5.100  0.000E+00  0.000E+00  0.000E+00  0.000E+00
   5.150  0.000E+00  0.000E+00  0.000E+00  0.000E+00
   5.200  0.000E+00  0.000E+00  0.000E+00  0.000E+00
   5.250  0.000E+00  0.000E+00  0.000E+00  0.000E+00
   5.300  0.000E+00  0.000E+00  0.000E+00  0.000E+00
   5.350  0.000E+00  0.000E+00  0.000E+00  0.000E+00
   5.400  0.000E+00  0.000E+00  0.000E+00  0.000E+00
   5.450  0.000E+00  0.000E+00  0.000E+00  0.000E+00
   5.500  0.000E+00  0.000E+00  0.000E+00  0.000E+00
   5.550  0.000E+00  0.000E+00  0.000E+00  0.000E+00
   5.600  0.000E+00  0.000E+00  0.000E+00  0.000E+00
   5.650  0.000E+00  0.000E+00  0.000E+00  0.000E+00
   5.700  0.000E+00  0.000E+00  0.000E+00  0.000E+00
   5.750  0.000E+00  0.000E+00  0.000E+00  0.000E+00
   5.800  0.000E+00  0.000E+00  0.000E+00  0.000E+00
   5.850  0.000E+00  0.000E+00  0.000E+00  0.000E+00
   5.900  0.000E+00  0.000E+00  0.000E+00  0.000E+00
   5.950  0.000E+00  0.000E+00  0.000E+00  0.000E+00
   6.000  0.000E+00  0.000E+00  0.000E+00  0.000E+00
   6.050  0.000E+00  0.000E+00  0.000E+00  0.000E+00
   6.100  0.000E+00  0.000E+00  0.000E+00  0.000E+00
   6.150  0.000E+00  0.000E+00  0.000E+00  0.000E+00
   6.200  0.000E+00  0.000E+00  0.000E+00  0.000E+00
   6.250  0.000E+00  0.000E+00  0.000E+00  0.000E+00
   6.300  0.000E+00  0.000E+00  0.000E+00  0.000E+00
   6.350  0.000E+00  0.000E+00  0.000E+00  0.000E+00
   6.400  0.000E+00  0.000E+00  0.000E+00  0.000E+00
   6.450  0.000E+00  0.000E+00  0.000E+00  0.000E+00
   6.500  0.000E+00  0.000E+00  0.000E+00  0.000E+00
   6.550  0.000E+00  0.000E+00  0.000E+00  0.000E+00
   6.600  0.000E+00  0.000E+00  0.000E+00  0.000E+00
   6.650  0.000E+00  0.000E+00  0.000E+00  0.000E+00
   6.700  0.000E+00  0.000E+00  0.000E+00  0.000E+00
   6.750  0.000E+00  0.000E+00  0.000E+00  0.000E+00
   6.800  0.000E+00  0.000E+00  0.000E+00  0.000E+00
   6.850  0.000E+00  0.000E+00  0.000E+00  0.000E+00
   6.900  0.000E+00  0.000E+00  0.000E+00  0.000E+00
   6.950  0.000E+00  0.000E+00  0.000E+00  0.000E+00
   7.000  0.000E+00  0.000E+00  0.000E+00  0.000E+00
   7.050  0.000E+00  0.000E+00  0.000E+00  0.000E+00
   7.100  0.000E+00  0.000E+00  0.000E+00  0.000E+00
   7.150  0.000E+00  0.000E+00  0.000E+00  0.000E+00
   7.200  0.000E+00  0.000E+00  0.000E+00  0.000E+00
   7.250  0.000E+00  0.000E+00  0.000E+00  0.000E+00
   7.300  0.000E+00  0.000E+00  0.000E+00  0.000E+00
   7.350  0.000E+00  0.000E+00  0.000E+00  0.000E+00
   7.400  0.000E+00  0.000E+00  0.000E+00  0.000E+00
   7.450  0.000E+00  0.000E+00  0.000E+00  0.000E+00
   7.500  0.000E+00  0.000E+00  0.000E+00  0.000E+00
   7.550  0.000E+00  0.000E+00  0.000E+00  0.000E+00
   7.600  0.000E+00  0.000E+00  0.000E+00  0.000E+00
   7.650  0.000E+00  0.000E+00  0.000E+00  0.000E+00
   7.700  0.000E+00  0.000E+00  0.000E+00  0.000E+00
   7.750  0.000E+00  0.000E+00  0.000E+00  0.000E+00
   7.800  0.000E+00  0.000E+00  0.000E+00  0.000E+00
   7.850  0.000E+00  0.000E+00  0.000E+00  0.000E+00
   7.900  0.000E+00  0.000E+00  0.000E+00  0.000E+00
   7.950  0.000E+00  0.000E+00  0.000E+00  0.000E+00
   8.000  0.000E+00  0.000E+00  0.000E+00  0.000E+00
   8.050  0.000E+00  0.000E+00  0.000E+00  0.000E+00
   8.100  0.000E+00  0.000E+00  0.000E+00  0.000E+00
   8.150  0.000E+00  0.000E+00  0.000E+00  0.000E+00
   8.200  0.000E+00  0.000E+00  0.000E+00  0.000E+00
   8.250  0.000E+00  0.000E+00  0.000E+00  0.000E+00
   8.300  0.000E+00  0.000E+00  0.000E+00  0.000E+00
   8.350  0.000E+00  0.000E+00  0.000E+00  0.000E+00
   8.400  0.000E+00  0.000E+00  0.000E+00  0.000E+00
   8.450  0.000E+00  0.000E+00  0.000E+00  0.000E+00
   8.500  0.000E+00  0.000E+00  0.000E+00  0.000E+00
   8.550  0.000E+00  0.000E+00  0.000E+00  0.000E+00
   8.600  0.000E+00  0.000E+00  0.000E+00  0.000E+00
   8.650  0.000E+00  0.000E+00  0.000E+00  0.000E+00
   8.700  0.000E+00  0.000E+00  0.000E+00  0.000E+00
   8.750  0.000E+00  0.000E+00  0.000E+00  0.000E+00
   8.800  0.000E+00  0.000E+00  0.000E+00  0.000E+00
   8.850  0.000E+00  0.000E+00  0.000E+00  0.000E+00
   8.900  0.000E+00  0.000E+00  0.000E+00  0.000E+00
   8.950  0.000E+00  0.000E+00  0.000E+00  0.000E+00
   9.000  0.000E+00  0.000E+00  0.000E+00  0.000E+00
   9.050  0.000E+00  0.000E+00  0.000E+00  0.000E+00
   9.100  0.000E+00  0.000E+00  0.000E+00  0.000E+00
   9.150  0.000E+00  0.000E+00  0.000E+00  0.000E+00
   9.200  0.000E+00  0.000E+00  0.000E+00  0.000E+00
   9.250  0.000E+00  0.000E+00  0.000E+00  0.000E+00
   9.300  0.000E+00  0.000E+00  0.000E+00  0.000E+00
   9.350  0.130E-03  0.147E-03  0.130E-03  0.147E-03
   9.400  0.461E-03  0.497E-03  0.461E-03  0.497E-03
   9.450  0.537E-03  0.559E-03  0.537E-03  0.559E-03
   9.500  0.663E-03  0.687E-03  0.663E-03  0.687E-03
   9.550  0.783E-03  0.810E-03  0.783E-03  0.810E-03
   9.600  0.914E-03  0.944E-03  0.914E-03  0.944E-03
   9.650  0.101E-02  0.104E-02  0.101E-02  0.104E-02
   9.700  0.109E-02  0.112E-02  0.109E-02  0.112E-02
   9.750  0.117E-02  0.120E-02  0.117E-02  0.120E-02
   9.800  0.126E-02  0.130E-02  0.126E-02  0.130E-02
   9.850  0.136E-02  0.140E-02  0.136E-02  0.140E-02
   9.900  0.147E-02  0.150E-02  0.147E-02  0.150E-02
   9.950  0.154E-02  0.158E-02  0.154E-02  0.158E-02
  10.000  0.160E-02  0.164E-02  0.160E-02  0.164E-02
  10.050  0.167E-02  0.171E-02  0.167E-02  0.171E-02
  10.100  0.175E-02  0.178E-02  0.175E-02  0.178E-02
  10.150  0.182E-02  0.186E-02  0.182E-02  0.186E-02
  10.200  0.190E-02  0.193E-02  0.190E-02  0.193E-02
  10.250  0.197E-02  0.200E-02  0.197E-02  0.200E-02
  10.300  0.205E-02  0.208E-02  0.205E-02  0.208E-02
  10.350  0.212E-02  0.216E-02  0.212E-02  0.216E-02
  10.400  0.218E-02  0.222E-02  0.218E-02  0.222E-02
  10.450  0.223E-02  0.227E-02  0.223E-02  0.227E-02
  10.500  0.229E-02  0.232E-02  0.229E-02  0.232E-02
  10.550  0.235E-02  0.238E-02  0.235E-02  0.238E-02
  10.600  0.241E-02  0.243E-02  0.241E-02  0.243E-02
  10.650  0.246E-02  0.249E-02  0.246E-02  0.249E-02
  10.700  0.252E-02  0.254E-02  0.252E-02  0.254E-02
  10.750  0.258E-02  0.260E-02  0.258E-02  0.260E-02
  10.800  0.264E-02  0.266E-02  0.264E-02  0.266E-02
  10.850  0.269E-02  0.271E-02  0.269E-02  0.271E-02
  10.900  0.274E-02  0.275E-02  0.274E-02  0.275E-02
  10.950  0.278E-02  0.279E-02  0.278E-02  0.279E-02
  11.000  0.282E-02  0.282E-02  0.282E-02  0.282E-02
  11.050  0.286E-02  0.286E-02  0.286E-02  0.286E-02
  11.100  0.290E-02  0.289E-02  0.290E-02  0.289E-02
  11.150  0.295E-02  0.294E-02  0.295E-02  0.294E-02
  11.200  0.300E-02  0.298E-02  0.300E-02  0.298E-02
  11.250  0.305E-02  0.302E-02  0.305E-02  0.302E-02
  11.300  0.311E-02  0.307E-02  0.311E-02  0.307E-02
  11.350  0.324E-02  0.311E-02  0.324E-02  0.311E-02
  11.400  0.332E-02  0.321E-02  0.332E-02  0.321E-02
  11.450  0.333E-02  0.332E-02  0.333E-02  0.332E-02
  11.500  0.335E-02  0.333E-02  0.335E-02  0.333E-02
  11.550  0.333E-02  0.335E-02  0.333E-02  0.335E-02
  11.600  0.333E-02  0.332E-02  0.333E-02  0.332E-02
  11.650  0.333E-02  0.331E-02  0.333E-02  0.331E-02
  11.700  0.334E-02  0.330E-02  0.334E-02  0.330E-02
  11.750  0.333E-02  0.330E-02  0.333E-02  0.330E-02
  11.800  0.346E-02  0.329E-02  0.346E-02  0.329E-02
  11.850  0.352E-02  0.327E-02  0.352E-02  0.327E-02
  11.900  0.355E-02  0.338E-02  0.355E-02  0.338E-02
  11.950  0.362E-02  0.346E-02  0.362E-02  0.346E-02
  12.000  0.366E-02  0.347E-02  0.366E-02  0.347E-02
  12.050  0.366E-02  0.352E-02  0.366E-02  0.352E-02
  12.100  0.369E-02  0.355E-02  0.369E-02  0.355E-02
  12.150  0.372E-02  0.354E-02  0.372E-02  0.354E-02
  12.200  0.374E-02  0.355E-02  0.374E-02  0.355E-02
  12.250  0.377E-02  0.357E-02  0.377E-02  0.357E-02
  12.300  0.378E-02  0.359E-02  0.378E-02  0.359E-02
  12.350  0.381E-02  0.360E-02  0.381E-02  0.360E-02
  12.400  0.383E-02  0.359E-02  0.383E-02  0.359E-02
  12.450  0.386E-02  0.360E-02  0.386E-02  0.360E-02
  12.500  0.388E-02  0.360E-02  0.388E-02  0.360E-02
  12.550  0.391E-02  0.360E-02  0.391E-02  0.360E-02
  12.600  0.392E-02  0.361E-02  0.392E-02  0.361E-02
  12.650  0.395E-02  0.361E-02  0.395E-02  0.361E-02
  12.700  0.398E-02  0.362E-02  0.398E-02  0.362E-02
  12.750  0.400E-02  0.362E-02  0.400E-02  0.362E-02
  12.800  0.402E-02  0.361E-02  0.402E-02  0.361E-02
  12.850  0.402E-02  0.361E-02  0.402E-02  0.361E-02
  12.900  0.405E-02  0.361E-02  0.405E-02  0.361E-02
  12.950  0.408E-02  0.361E-02  0.408E-02  0.361E-02
  13.000  0.417E-02  0.360E-02  0.417E-02  0.360E-02
  13.050  0.417E-02  0.358E-02  0.417E-02  0.358E-02
  13.100  0.425E-02  0.357E-02  0.425E-02  0.357E-02
  13.150  0.426E-02  0.356E-02  0.426E-02  0.356E-02
  13.200  0.403E-02  0.355E-02  0.403E-02  0.355E-02
  13.250  0.395E-02  0.353E-02  0.395E-02  0.353E-02
  13.300  0.359E-02  0.351E-02  0.359E-02  0.351E-02
  13.350  0.354E-02  0.350E-02  0.354E-02  0.350E-02
  13.400  0.340E-02  0.348E-02  0.340E-02  0.348E-02
  13.450  0.318E-02  0.345E-02  0.318E-02  0.345E-02
  13.500  0.299E-02  0.343E-02  0.299E-02  0.343E-02
  13.550  0.277E-02  0.340E-02  0.277E-02  0.340E-02
  13.600  0.265E-02  0.338E-02  0.265E-02  0.338E-02
  13.650  0.245E-02  0.334E-02  0.245E-02  0.334E-02
  13.700  0.225E-02  0.331E-02  0.225E-02  0.331E-02
  13.750  0.208E-02  0.326E-02  0.208E-02  0.326E-02
  13.800  0.190E-02  0.323E-02  0.190E-02  0.323E-02
  13.850  0.179E-02  0.319E-02  0.179E-02  0.319E-02
  13.900  0.168E-02  0.316E-02  0.168E-02  0.316E-02
  13.950  0.139E-02  0.309E-02  0.139E-02  0.309E-02
  14.000  0.112E-02  0.305E-02  0.112E-02  0.305E-02
  14.050  0.125E-02  0.298E-02  0.125E-02  0.298E-02
  14.100  0.121E-02  0.292E-02  0.121E-02  0.292E-02
  14.150  0.115E-02  0.287E-02  0.115E-02  0.287E-02
  14.200  0.117E-02  0.280E-02  0.117E-02  0.280E-02
  14.250  0.130E-02  0.269E-02  0.130E-02  0.269E-02
  14.300  0.129E-02  0.256E-02  0.129E-02  0.256E-02
  14.350  0.129E-02  0.244E-02  0.129E-02  0.244E-02
  14.400  0.108E-02  0.231E-02  0.108E-02  0.231E-02
  14.450  0.701E-03  0.230E-02  0.701E-03  0.230E-02
  14.500  0.529E-03  0.210E-02  0.529E-03  0.210E-02
  14.550  0.480E-03  0.198E-02  0.480E-03  0.198E-02
  14.600  0.645E-03  0.186E-02  0.645E-03  0.186E-02
  14.650  0.670E-03  0.176E-02  0.670E-03  0.176E-02
  14.700  0.741E-03  0.166E-02  0.741E-03  0.166E-02
  14.750  0.790E-03  0.157E-02  0.790E-03  0.157E-02
  14.800  0.813E-03  0.149E-02  0.813E-03  0.149E-02
  14.850  0.957E-03  0.143E-02  0.957E-03  0.143E-02
  14.900  0.157E-02  0.133E-02  0.157E-02  0.133E-02
  14.950  0.134E-02  0.123E-02  0.134E-02  0.123E-02
  15.000  0.116E-02  0.112E-02  0.116E-02  0.112E-02
  15.050  0.832E-03  0.100E-02  0.832E-03  0.100E-02
  15.100  0.680E-03  0.887E-03  0.680E-03  0.887E-03
  15.150  0.579E-03  0.788E-03  0.579E-03  0.788E-03
  15.200  0.539E-03  0.708E-03  0.539E-03  0.708E-03
  15.250  0.514E-03  0.657E-03  0.514E-03  0.657E-03
  15.300  0.673E-03  0.629E-03  0.673E-03  0.629E-03
  15.350  0.943E-03  0.673E-03  0.943E-03  0.673E-03
  15.400  0.112E-02  0.582E-03  0.112E-02  0.582E-03
  15.450  0.135E-02  0.568E-03  0.135E-02  0.568E-03
  15.500  0.101E-02  0.557E-03  0.101E-02  0.557E-03
  15.550  0.104E-02  0.567E-03  0.104E-02  0.567E-03
  15.600  0.898E-03  0.611E-03  0.898E-03  0.611E-03
  15.650  0.118E-02  0.564E-03  0.118E-02  0.564E-03
  15.700  0.889E-03  0.588E-03  0.889E-03  0.588E-03
  15.750  0.111E-02  0.584E-03  0.111E-02  0.584E-03
  15.800  0.120E-02  0.584E-03  0.120E-02  0.584E-03
  15.850  0.130E-02  0.523E-03  0.130E-02  0.523E-03
  15.900  0.117E-02  0.522E-03  0.117E-02  0.522E-03
  15.950  0.120E-02  0.590E-03  0.120E-02  0.590E-03
  16.000  0.137E-02  0.627E-03  0.137E-02  0.627E-03
  16.050  0.147E-02  0.681E-03  0.147E-02  0.681E-03
  16.100  0.130E-02  0.772E-03  0.130E-02  0.772E-03
  16.150  0.114E-02  0.848E-03  0.114E-02  0.848E-03
  16.200  0.101E-02  0.939E-03  0.101E-02  0.939E-03
  16.250  0.944E-03  0.108E-02  0.944E-03  0.108E-02
  16.300  0.843E-03  0.118E-02  0.843E-03  0.118E-02
  16.350  0.737E-03  0.157E-02  0.737E-03  0.157E-02
  16.400  0.699E-03  0.996E-03  0.699E-03  0.996E-03
  16.450  0.658E-03  0.624E-03  0.658E-03  0.624E-03
  16.500  0.655E-03  0.527E-03  0.655E-03  0.527E-03
  16.550  0.643E-03  0.464E-03  0.643E-03  0.464E-03
  16.600  0.655E-03  0.478E-03  0.655E-03  0.478E-03
  16.650  0.601E-03  0.434E-03  0.601E-03  0.434E-03
  16.700  0.561E-03  0.434E-03  0.561E-03  0.434E-03
  16.750  0.520E-03  0.452E-03  0.520E-03  0.452E-03
  16.800  0.484E-03  0.479E-03  0.484E-03  0.479E-03
  16.850  0.437E-03  0.395E-03  0.437E-03  0.395E-03
  16.900  0.395E-03  0.530E-03  0.395E-03  0.530E-03
  16.950  0.368E-03  0.681E-03  0.368E-03  0.681E-03
  17.000  0.357E-03  0.936E-03  0.357E-03  0.936E-03
  17.050  0.375E-03  0.112E-02  0.375E-03  0.112E-02
  17.100  0.392E-03  0.102E-02  0.392E-03  0.102E-02
  17.150  0.386E-03  0.834E-03  0.386E-03  0.834E-03
  17.200  0.381E-03  0.755E-03  0.381E-03  0.755E-03
  17.250  0.450E-03  0.785E-03  0.450E-03  0.785E-03
  17.300  0.563E-03  0.779E-03  0.563E-03  0.779E-03
  17.350  0.620E-03  0.833E-03  0.620E-03  0.833E-03
  17.400  0.675E-03  0.918E-03  0.675E-03  0.918E-03
  17.450  0.683E-03  0.975E-03  0.683E-03  0.975E-03
  17.500  0.679E-03  0.117E-02  0.679E-03  0.117E-02
  17.550  0.721E-03  0.129E-02  0.721E-03  0.129E-02
  17.600  0.730E-03  0.126E-02  0.730E-03  0.126E-02
  17.650  0.767E-03  0.139E-02  0.767E-03  0.139E-02
  17.700  0.813E-03  0.151E-02  0.813E-03  0.151E-02
  17.750  0.853E-03  0.126E-02  0.853E-03  0.126E-02
  17.800  0.895E-03  0.923E-03  0.895E-03  0.923E-03
  17.850  0.919E-03  0.789E-03  0.919E-03  0.789E-03
  17.900  0.909E-03  0.748E-03  0.909E-03  0.748E-03
  17.950  0.907E-03  0.640E-03  0.907E-03  0.640E-03
  18.000  0.911E-03  0.551E-03  0.911E-03  0.551E-03
  18.050  0.917E-03  0.486E-03  0.917E-03  0.486E-03
  18.100  0.911E-03  0.438E-03  0.911E-03  0.438E-03
  18.150  0.914E-03  0.394E-03  0.914E-03  0.394E-03
  18.200  0.916E-03  0.376E-03  0.916E-03  0.376E-03
  18.250  0.918E-03  0.377E-03  0.918E-03  0.377E-03
  18.300  0.925E-03  0.336E-03  0.925E-03  0.336E-03
  18.350  0.928E-03  0.314E-03  0.928E-03  0.314E-03
  18.400  0.926E-03  0.269E-03  0.926E-03  0.269E-03
  18.450  0.921E-03  0.255E-03  0.921E-03  0.255E-03
  18.500  0.898E-03  0.233E-03  0.898E-03  0.233E-03
  18.550  0.881E-03  0.214E-03  0.881E-03  0.214E-03
  18.600  0.867E-03  0.198E-03  0.867E-03  0.198E-03
  18.650  0.857E-03  0.184E-03  0.857E-03  0.184E-03
  18.700  0.848E-03  0.174E-03  0.848E-03  0.174E-03
  18.750  0.840E-03  0.169E-03  0.840E-03  0.169E-03
  18.800  0.830E-03  0.170E-03  0.830E-03  0.170E-03
  18.850  0.823E-03  0.177E-03  0.823E-03  0.177E-03
  18.900  0.812E-03  0.183E-03  0.812E-03  0.183E-03
  18.950  0.801E-03  0.193E-03  0.801E-03  0.193E-03
  19.000  0.789E-03  0.212E-03  0.789E-03  0.212E-03
  19.050  0.773E-03  0.236E-03  0.773E-03  0.236E-03
  19.100  0.756E-03  0.262E-03  0.756E-03  0.262E-03
  19.150  0.743E-03  0.299E-03  0.743E-03  0.299E-03
  19.200  0.732E-03  0.328E-03  0.732E-03  0.328E-03
  19.250  0.717E-03  0.360E-03  0.717E-03  0.360E-03
  19.300  0.687E-03  0.430E-03  0.687E-03  0.430E-03
  19.350  0.672E-03  0.440E-03  0.672E-03  0.440E-03
  19.400  0.662E-03  0.449E-03  0.662E-03  0.449E-03
  19.450  0.647E-03  0.455E-03  0.647E-03  0.455E-03
  19.500  0.643E-03  0.474E-03  0.643E-03  0.474E-03
  19.550  0.591E-03  0.505E-03  0.591E-03  0.505E-03
  19.600  0.570E-03  0.536E-03  0.570E-03  0.536E-03
  19.650  0.551E-03  0.558E-03  0.551E-03  0.558E-03
  19.700  0.531E-03  0.648E-03  0.531E-03  0.648E-03
  19.750  0.512E-03  0.665E-03  0.512E-03  0.665E-03
  19.800  0.496E-03  0.628E-03  0.496E-03  0.628E-03
  19.850  0.478E-03  0.632E-03  0.478E-03  0.632E-03
  19.900  0.461E-03  0.644E-03  0.461E-03  0.644E-03
  19.950  0.448E-03  0.652E-03  0.448E-03  0.652E-03
  20.000  0.436E-03  0.661E-03  0.436E-03  0.661E-03
  20.050  0.422E-03  0.668E-03  0.422E-03  0.668E-03
  20.100  0.408E-03  0.660E-03  0.408E-03  0.660E-03
  20.150  0.395E-03  0.657E-03  0.395E-03  0.657E-03
  20.200  0.385E-03  0.656E-03  0.385E-03  0.656E-03
  20.250  0.364E-03  0.653E-03  0.364E-03  0.653E-03
  20.300  0.348E-03  0.650E-03  0.348E-03  0.650E-03
  20.350  0.334E-03  0.644E-03  0.334E-03  0.644E-03
  20.400  0.322E-03  0.629E-03  0.322E-03  0.629E-03
  20.450  0.310E-03  0.615E-03  0.310E-03  0.615E-03
  20.500  0.298E-03  0.603E-03  0.298E-03  0.603E-03
  20.550  0.287E-03  0.594E-03  0.287E-03  0.594E-03
  20.600  0.276E-03  0.584E-03  0.276E-03  0.584E-03
  20.650  0.266E-03  0.574E-03  0.266E-03  0.574E-03
  20.700  0.256E-03  0.564E-03  0.256E-03  0.564E-03
  20.750  0.246E-03  0.551E-03  0.246E-03  0.551E-03
  20.800  0.236E-03  0.534E-03  0.236E-03  0.534E-03
  20.850  0.227E-03  0.522E-03  0.227E-03  0.522E-03
  20.900  0.218E-03  0.502E-03  0.218E-03  0.502E-03
  20.950  0.209E-03  0.473E-03  0.209E-03  0.473E-03
  21.000  0.202E-03  0.456E-03  0.202E-03  0.456E-03
  21.050  0.195E-03  0.439E-03  0.195E-03  0.439E-03
  21.100  0.188E-03  0.421E-03  0.188E-03  0.421E-03
  21.150  0.181E-03  0.405E-03  0.181E-03  0.405E-03
  21.200  0.175E-03  0.390E-03  0.175E-03  0.390E-03
  21.250  0.169E-03  0.377E-03  0.169E-03  0.377E-03
  21.300  0.164E-03  0.364E-03  0.164E-03  0.364E-03
  21.350  0.160E-03  0.352E-03  0.160E-03  0.352E-03
  21.400  0.154E-03  0.340E-03  0.154E-03  0.340E-03
  21.450  0.150E-03  0.328E-03  0.150E-03  0.328E-03
  21.500  0.149E-03  0.317E-03  0.149E-03  0.317E-03
  21.550  0.147E-03  0.298E-03  0.147E-03  0.298E-03
  21.600  0.145E-03  0.286E-03  0.145E-03  0.286E-03
  21.650  0.143E-03  0.274E-03  0.143E-03  0.274E-03
  21.700  0.153E-03  0.262E-03  0.153E-03  0.262E-03
  21.750  0.124E-03  0.251E-03  0.124E-03  0.251E-03
  21.800  0.117E-03  0.241E-03  0.117E-03  0.241E-03
  21.850  0.111E-03  0.231E-03  0.111E-03  0.231E-03
  21.900  0.104E-03  0.221E-03  0.104E-03  0.221E-03
  21.950  0.988E-04  0.211E-03  0.988E-04  0.211E-03
  22.000  0.933E-04  0.202E-03  0.933E-04  0.202E-03
  22.050  0.881E-04  0.194E-03  0.881E-04  0.194E-03
  22.100  0.847E-04  0.186E-03  0.847E-04  0.186E-03
  22.150  0.853E-04  0.178E-03  0.853E-04  0.178E-03
  22.200  0.850E-04  0.171E-03  0.850E-04  0.171E-03
  22.250  0.722E-04  0.165E-03  0.722E-04  0.165E-03
  22.300  0.628E-04  0.159E-03  0.628E-04  0.159E-03
  22.350  0.582E-04  0.153E-03  0.582E-04  0.153E-03
  22.400  0.542E-04  0.148E-03  0.542E-04  0.148E-03
  22.450  0.505E-04  0.143E-03  0.505E-04  0.143E-03
  22.500  0.472E-04  0.139E-03  0.472E-04  0.139E-03
  22.550  0.438E-04  0.134E-03  0.438E-04  0.134E-03
  22.600  0.404E-04  0.133E-03  0.404E-04  0.133E-03
  22.650  0.373E-04  0.133E-03  0.373E-04  0.133E-03
  22.700  0.344E-04  0.129E-03  0.344E-04  0.129E-03
  22.750  0.315E-04  0.125E-03  0.315E-04  0.125E-03
  22.800  0.288E-04  0.129E-03  0.288E-04  0.129E-03
  22.850  0.262E-04  0.108E-03  0.262E-04  0.108E-03
  22.900  0.237E-04  0.103E-03  0.237E-04  0.103E-03
  22.950  0.216E-04  0.967E-04  0.216E-04  0.967E-04
  23.000  0.210E-04  0.910E-04  0.210E-04  0.910E-04
  23.050  0.195E-04  0.857E-04  0.195E-04  0.857E-04
  23.100  0.174E-04  0.804E-04  0.174E-04  0.804E-04
  23.150  0.216E-04  0.754E-04  0.216E-04  0.754E-04
  23.200  0.154E-04  0.722E-04  0.154E-04  0.722E-04
  23.250  0.132E-04  0.707E-04  0.132E-04  0.707E-04
  23.300  0.119E-04  0.630E-04  0.119E-04  0.630E-04
  23.350  0.104E-04  0.557E-04  0.104E-04  0.557E-04
  23.400  0.927E-05  0.503E-04  0.927E-05  0.503E-04
  23.450  0.823E-05  0.465E-04  0.823E-05  0.465E-04
  23.500  0.727E-05  0.428E-04  0.727E-05  0.428E-04
  23.550  0.643E-05  0.395E-04  0.643E-05  0.395E-04
  23.600  0.560E-05  0.363E-04  0.560E-05  0.363E-04
  23.650  0.489E-05  0.332E-04  0.489E-05  0.332E-04
  23.700  0.422E-05  0.301E-04  0.422E-05  0.301E-04
  23.750  0.368E-05  0.273E-04  0.368E-05  0.273E-04
  23.800  0.323E-05  0.246E-04  0.323E-05  0.246E-04
  23.850  0.287E-05  0.220E-04  0.287E-05  0.220E-04
  23.900  0.249E-05  0.197E-04  0.249E-05  0.197E-04
  23.950  0.214E-05  0.191E-04  0.214E-05  0.191E-04
  24.000  0.183E-05  0.177E-04  0.183E-05  0.177E-04
  24.050  0.155E-05  0.150E-04  0.155E-05  0.150E-04
  24.100  0.131E-05  0.151E-04  0.131E-05  0.151E-04
  24.150  0.111E-05  0.123E-04  0.111E-05  0.123E-04
  24.200  0.943E-06  0.110E-04  0.943E-06  0.110E-04
  24.250  0.804E-06  0.951E-05  0.804E-06  0.951E-05
  24.300  0.677E-06  0.827E-05  0.677E-06  0.827E-05
  24.350  0.585E-06  0.719E-05  0.585E-06  0.719E-05
  24.400  0.499E-06  0.618E-05  0.499E-06  0.618E-05
  24.450  0.468E-06  0.522E-05  0.468E-06  0.522E-05
  24.500  0.353E-06  0.437E-05  0.353E-06  0.437E-05
  24.550  0.376E-06  0.380E-05  0.376E-06  0.380E-05
  24.600  0.398E-06  0.330E-05  0.398E-06  0.330E-05
  24.650  0.392E-06  0.277E-05  0.392E-06  0.277E-05
  24.700  0.389E-06  0.231E-05  0.389E-06  0.231E-05
  24.750  0.389E-06  0.191E-05  0.389E-06  0.191E-05
  24.800  0.378E-06  0.157E-05  0.378E-06  0.157E-05
  24.850  0.420E-06  0.127E-05  0.420E-06  0.127E-05
  24.900  0.463E-06  0.101E-05  0.463E-06  0.101E-05
  24.950  0.455E-06  0.789E-06  0.455E-06  0.789E-06
  25.000  0.397E-06  0.600E-06  0.397E-06  0.600E-06
  25.050  0.340E-06  0.438E-06  0.340E-06  0.438E-06
