#  E (eV)   dosup(E)     dosdw(E)   Int dos(E) EFermi =   12.849 eV
   5.000  0.8582E-02  0.3712E-02  0.6338E-03
   5.100  0.1235E-01  0.9733E-02  0.2406E-02
   5.200  0.1512E-01  0.1258E-01  0.4879E-02
   5.300  0.2162E-01  0.1622E-01  0.8086E-02
   5.400  0.3007E-01  0.2292E-01  0.1260E-01
   5.500  0.2531E-01  0.3143E-01  0.1854E-01
   5.600  0.2805E-01  0.2499E-01  0.2426E-01
   5.700  0.3127E-01  0.2759E-01  0.2984E-01
   5.800  0.3499E-01  0.3063E-01  0.3606E-01
   5.900  0.3920E-01  0.3412E-01  0.4300E-01
   6.000  0.4701E-01  0.3804E-01  0.5100E-01
   6.100  0.4609E-01  0.4457E-01  0.5989E-01
   6.200  0.4920E-01  0.4345E-01  0.6900E-01
   6.300  0.5202E-01  0.4579E-01  0.7851E-01
   6.400  0.5268E-01  0.4792E-01  0.8846E-01
   6.500  0.5504E-01  0.4836E-01  0.9863E-01
   6.600  0.5896E-01  0.4940E-01  0.1092E+00
   6.700  0.6325E-01  0.5230E-01  0.1204E+00
   6.800  0.6789E-01  0.5540E-01  0.1323E+00
   6.900  0.7301E-01  0.5870E-01  0.1450E+00
   7.000  0.8156E-01  0.6221E-01  0.1590E+00
   7.100  0.8382E-01  0.6819E-01  0.1739E+00
   7.200  0.8825E-01  0.6964E-01  0.1893E+00
   7.300  0.9656E-01  0.6999E-01  0.2055E+00
   7.400  0.1041E+00  0.7155E-01  0.2226E+00
   7.500  0.1105E+00  0.7489E-01  0.2407E+00
   7.600  0.1182E+00  0.7850E-01  0.2597E+00
   7.700  0.1289E+00  0.8177E-01  0.2801E+00
   7.800  0.1414E+00  0.8468E-01  0.3019E+00
   7.900  0.1571E+00  0.8752E-01  0.3254E+00
   8.000  0.2082E+00  0.9167E-01  0.3518E+00
   8.100  0.2658E+00  0.9632E-01  0.3846E+00
   8.200  0.3374E+00  0.1022E+00  0.4247E+00
   8.300  0.4862E+00  0.1084E+00  0.4769E+00
   8.400  0.6077E+00  0.1159E+00  0.5432E+00
   8.500  0.7034E+00  0.1208E+00  0.6214E+00
   8.600  0.7374E+00  0.1248E+00  0.7044E+00
   8.700  0.9220E+00  0.1306E+00  0.7990E+00
   8.800  0.1197E+01  0.1412E+00  0.9277E+00
   8.900  0.1096E+01  0.1508E+00  0.1062E+01
   9.000  0.7805E+00  0.1589E+00  0.1170E+01
   9.100  0.6337E+00  0.1677E+00  0.1255E+01
   9.200  0.5686E+00  0.1808E+00  0.1333E+01
   9.300  0.4119E+00  0.1962E+00  0.1401E+01
   9.400  0.3226E+00  0.2151E+00  0.1456E+01
   9.500  0.3523E+00  0.3027E+00  0.1513E+01
   9.600  0.1154E+01  0.3430E+00  0.1595E+01
   9.700  0.2188E+01  0.3374E+00  0.1852E+01
   9.800  0.1289E+01  0.3615E+00  0.2071E+01
   9.900  0.1075E+01  0.3700E+00  0.2222E+01
  10.000  0.8306E+00  0.3630E+00  0.2354E+01
  10.100  0.8336E+00  0.3726E+00  0.2472E+01
  10.200  0.1145E+01  0.3869E+00  0.2606E+01
  10.300  0.1179E+01  0.4153E+00  0.2761E+01
  10.400  0.1810E+01  0.5383E+00  0.2965E+01
  10.500  0.1974E+01  0.6677E+00  0.3223E+01
  10.600  0.1046E+01  0.6718E+00  0.3446E+01
  10.700  0.7020E+00  0.6140E+00  0.3597E+01
  10.800  0.5683E+00  0.4800E+00  0.3713E+01
  10.900  0.4431E+00  0.3666E+00  0.3807E+01
  11.000  0.4339E+00  0.2376E+00  0.3880E+01
  11.100  0.4995E+00  0.2265E+00  0.3949E+01
  11.200  0.5676E+00  0.2146E+00  0.4025E+01
  11.300  0.6040E+00  0.2039E+00  0.4103E+01
  11.400  0.1081E+01  0.7137E+00  0.4227E+01
  11.500  0.1399E+01  0.1198E+01  0.4451E+01
  11.600  0.1936E+01  0.1364E+01  0.4741E+01
  11.700  0.2059E+01  0.1517E+01  0.5089E+01
  11.800  0.2587E+01  0.1405E+01  0.5476E+01
  11.900  0.2534E+01  0.1215E+01  0.5868E+01
  12.000  0.1792E+01  0.1183E+01  0.6223E+01
  12.100  0.1211E+01  0.1031E+01  0.6486E+01
  12.200  0.1055E+01  0.1167E+01  0.6711E+01
  12.300  0.9504E+00  0.1372E+01  0.6938E+01
  12.400  0.8529E+00  0.1406E+01  0.7172E+01
  12.500  0.8080E+00  0.1254E+01  0.7389E+01
  12.600  0.8640E+00  0.1066E+01  0.7588E+01
  12.700  0.8799E+00  0.9039E+00  0.7777E+01
  12.800  0.8988E+00  0.4770E+00  0.7936E+01
  12.900  0.5931E+00  0.2901E+00  0.8057E+01
  13.000  0.2016E+00  0.2224E+00  0.8118E+01
  13.100  0.1454E+00  0.1757E+00  0.8154E+01
  13.200  0.1424E+00  0.1675E+00  0.8186E+01
  13.300  0.1399E+00  0.1609E+00  0.8217E+01
  13.400  0.1384E+00  0.1699E+00  0.8247E+01
  13.500  0.1404E+00  0.2183E+00  0.8280E+01
  13.600  0.1528E+00  0.2726E+00  0.8319E+01
  13.700  0.1653E+00  0.3965E+00  0.8371E+01
  13.800  0.1700E+00  0.4254E+00  0.8426E+01
  13.900  0.1700E+00  0.4902E+00  0.8492E+01
  14.000  0.1652E+00  0.6323E+00  0.8565E+01
  14.100  0.1537E+00  0.8685E+00  0.8657E+01
  14.200  0.1514E+00  0.9496E+00  0.8760E+01
  14.300  0.1508E+00  0.1175E+01  0.8878E+01
  14.400  0.1516E+00  0.1330E+01  0.9024E+01
  14.500  0.1526E+00  0.1433E+01  0.9175E+01
  14.600  0.1529E+00  0.1545E+01  0.9345E+01
  14.700  0.1527E+00  0.1294E+01  0.9506E+01
  14.800  0.1521E+00  0.9905E+00  0.9633E+01
  14.900  0.1510E+00  0.1341E+01  0.9761E+01
  15.000  0.1522E+00  0.1827E+01  0.9927E+01
  15.100  0.1479E+00  0.4309E+01  0.1025E+02
  15.200  0.1477E+00  0.1652E+01  0.1048E+02
  15.300  0.1457E+00  0.1187E+01  0.1064E+02
  15.400  0.1424E+00  0.1005E+01  0.1076E+02
  15.500  0.1481E+00  0.4541E+00  0.1084E+02
  15.600  0.1463E+00  0.2539E+00  0.1089E+02
  15.700  0.1390E+00  0.2329E+00  0.1093E+02
  15.800  0.1340E+00  0.2542E+00  0.1097E+02
  15.900  0.1345E+00  0.2614E+00  0.1101E+02
  16.000  0.1371E+00  0.2557E+00  0.1105E+02
  16.100  0.1349E+00  0.2428E+00  0.1108E+02
  16.200  0.1292E+00  0.2395E+00  0.1112E+02
  16.300  0.1239E+00  0.2345E+00  0.1116E+02
  16.400  0.1193E+00  0.2286E+00  0.1119E+02
  16.500  0.1194E+00  0.2145E+00  0.1123E+02
  16.600  0.1146E+00  0.2065E+00  0.1126E+02
  16.700  0.1138E+00  0.2007E+00  0.1129E+02
  16.800  0.1130E+00  0.1948E+00  0.1132E+02
  16.900  0.1122E+00  0.1897E+00  0.1135E+02
  17.000  0.1116E+00  0.1862E+00  0.1138E+02
  17.100  0.1112E+00  0.1867E+00  0.1141E+02
  17.200  0.1111E+00  0.1849E+00  0.1144E+02
  17.300  0.1112E+00  0.1808E+00  0.1147E+02
  17.400  0.1043E+00  0.1751E+00  0.1150E+02
  17.500  0.1017E+00  0.1703E+00  0.1153E+02
  17.600  0.9799E-01  0.1834E+00  0.1156E+02
  17.700  0.9316E-01  0.1626E+00  0.1158E+02
  17.800  0.8438E-01  0.1519E+00  0.1161E+02
  17.900  0.7935E-01  0.1439E+00  0.1163E+02
  18.000  0.7528E-01  0.1401E+00  0.1166E+02
  18.100  0.7124E-01  0.1381E+00  0.1168E+02
  18.200  0.6034E-01  0.1365E+00  0.1170E+02
  18.300  0.5704E-01  0.1352E+00  0.1172E+02
  18.400  0.5504E-01  0.1341E+00  0.1174E+02
  18.500  0.5275E-01  0.1334E+00  0.1175E+02
  18.600  0.4989E-01  0.1329E+00  0.1177E+02
  18.700  0.4645E-01  0.1315E+00  0.1179E+02
  18.800  0.4244E-01  0.1209E+00  0.1181E+02
  18.900  0.3940E-01  0.1157E+00  0.1182E+02
  19.000  0.3740E-01  0.1093E+00  0.1184E+02
  19.100  0.3540E-01  0.1211E+00  0.1186E+02
  19.200  0.3341E-01  0.9270E-01  0.1187E+02
  19.300  0.3143E-01  0.8345E-01  0.1188E+02
  19.400  0.2945E-01  0.7527E-01  0.1189E+02
  19.500  0.2747E-01  0.6771E-01  0.1190E+02
  19.600  0.2550E-01  0.6330E-01  0.1191E+02
  19.700  0.2353E-01  0.5969E-01  0.1192E+02
  19.800  0.2111E-01  0.5551E-01  0.1193E+02
  19.900  0.1826E-01  0.5078E-01  0.1193E+02
  20.000  0.2516E-01  0.4657E-01  0.1194E+02
