# E (eV)  ldosup(E)  ldosdw(E) pdosup(E)  pdosdw(E)  pdosup(E)  pdosdw(E)  pdosup(E)  pdosdw(E)  pdosup(E)  pdosdw(E)  pdosup(E)  pdosdw(E) 
   5.000  0.178E-04  0.392E-05  0.295E-05  0.880E-06  0.398E-05  0.719E-06  0.398E-05  0.719E-06  0.295E-05  0.880E-06  0.398E-05  0.719E-06
   5.100  0.434E-04  0.157E-04  0.732E-05  0.253E-05  0.959E-05  0.355E-05  0.959E-05  0.355E-05  0.732E-05  0.253E-05  0.959E-05  0.355E-05
   5.200  0.837E-04  0.341E-04  0.154E-04  0.589E-05  0.176E-04  0.744E-05  0.176E-04  0.744E-05  0.154E-04  0.589E-05  0.176E-04  0.744E-05
   5.300  0.147E-03  0.642E-04  0.287E-04  0.120E-04  0.300E-04  0.134E-04  0.300E-04  0.134E-04  0.287E-04  0.120E-04  0.300E-04  0.134E-04
   5.400  0.227E-03  0.107E-03  0.442E-04  0.210E-04  0.461E-04  0.217E-04  0.461E-04  0.217E-04  0.442E-04  0.210E-04  0.461E-04  0.217E-04
   5.500  0.318E-03  0.159E-03  0.591E-04  0.308E-04  0.665E-04  0.324E-04  0.665E-04  0.324E-04  0.591E-04  0.308E-04  0.665E-04  0.324E-04
   5.600  0.464E-03  0.219E-03  0.854E-04  0.404E-04  0.977E-04  0.459E-04  0.977E-04  0.459E-04  0.854E-04  0.404E-04  0.977E-04  0.459E-04
   5.700  0.647E-03  0.310E-03  0.119E-03  0.568E-04  0.136E-03  0.655E-04  0.136E-03  0.655E-04  0.119E-03  0.568E-04  0.136E-03  0.655E-04
   5.800  0.871E-03  0.422E-03  0.162E-03  0.772E-04  0.183E-03  0.891E-04  0.183E-03  0.891E-04  0.162E-03  0.772E-04  0.183E-03  0.891E-04
   5.900  0.114E-02  0.556E-03  0.214E-03  0.102E-03  0.238E-03  0.117E-03  0.238E-03  0.117E-03  0.214E-03  0.102E-03  0.238E-03  0.117E-03
   6.000  0.144E-02  0.715E-03  0.275E-03  0.133E-03  0.296E-03  0.150E-03  0.296E-03  0.150E-03  0.275E-03  0.133E-03  0.296E-03  0.150E-03
   6.100  0.183E-02  0.881E-03  0.349E-03  0.168E-03  0.379E-03  0.182E-03  0.379E-03  0.182E-03  0.349E-03  0.168E-03  0.379E-03  0.182E-03
   6.200  0.230E-02  0.109E-02  0.437E-03  0.208E-03  0.477E-03  0.226E-03  0.477E-03  0.226E-03  0.437E-03  0.208E-03  0.477E-03  0.226E-03
   6.300  0.283E-02  0.134E-02  0.538E-03  0.253E-03  0.585E-03  0.278E-03  0.585E-03  0.278E-03  0.538E-03  0.253E-03  0.585E-03  0.278E-03
   6.400  0.347E-02  0.160E-02  0.664E-03  0.302E-03  0.716E-03  0.332E-03  0.716E-03  0.332E-03  0.664E-03  0.302E-03  0.716E-03  0.332E-03
   6.500  0.428E-02  0.191E-02  0.820E-03  0.362E-03  0.880E-03  0.396E-03  0.880E-03  0.396E-03  0.820E-03  0.362E-03  0.880E-03  0.396E-03
   6.600  0.525E-02  0.229E-02  0.101E-02  0.434E-03  0.108E-02  0.473E-03  0.108E-02  0.473E-03  0.101E-02  0.434E-03  0.108E-02  0.473E-03
   6.700  0.638E-02  0.273E-02  0.122E-02  0.517E-03  0.131E-02  0.564E-03  0.131E-02  0.564E-03  0.122E-02  0.517E-03  0.131E-02  0.564E-03
   6.800  0.771E-02  0.323E-02  0.148E-02  0.612E-03  0.159E-02  0.667E-03  0.159E-02  0.667E-03  0.148E-02  0.612E-03  0.159E-02  0.667E-03
   6.900  0.922E-02  0.379E-02  0.176E-02  0.719E-03  0.190E-02  0.784E-03  0.190E-02  0.784E-03  0.176E-02  0.719E-03  0.190E-02  0.784E-03
   7.000  0.109E-01  0.443E-02  0.211E-02  0.839E-03  0.223E-02  0.916E-03  0.223E-02  0.916E-03  0.211E-02  0.839E-03  0.223E-02  0.916E-03
   7.100  0.131E-01  0.505E-02  0.254E-02  0.960E-03  0.267E-02  0.104E-02  0.267E-02  0.104E-02  0.254E-02  0.960E-03  0.267E-02  0.104E-02
   7.200  0.159E-01  0.577E-02  0.309E-02  0.111E-02  0.325E-02  0.119E-02  0.325E-02  0.119E-02  0.309E-02  0.111E-02  0.325E-02  0.119E-02
   7.300  0.194E-01  0.661E-02  0.375E-02  0.127E-02  0.395E-02  0.136E-02  0.395E-02  0.136E-02  0.375E-02  0.127E-02  0.395E-02  0.136E-02
   7.400  0.233E-01  0.762E-02  0.454E-02  0.146E-02  0.475E-02  0.157E-02  0.475E-02  0.157E-02  0.454E-02  0.146E-02  0.475E-02  0.157E-02
   7.500  0.281E-01  0.874E-02  0.549E-02  0.168E-02  0.572E-02  0.180E-02  0.572E-02  0.180E-02  0.549E-02  0.168E-02  0.572E-02  0.180E-02
   7.600  0.342E-01  0.997E-02  0.666E-02  0.192E-02  0.695E-02  0.205E-02  0.695E-02  0.205E-02  0.666E-02  0.192E-02  0.695E-02  0.205E-02
   7.700  0.419E-01  0.113E-01  0.815E-02  0.218E-02  0.853E-02  0.233E-02  0.853E-02  0.233E-02  0.815E-02  0.218E-02  0.853E-02  0.233E-02
   7.800  0.517E-01  0.129E-01  0.101E-01  0.248E-02  0.105E-01  0.264E-02  0.105E-01  0.264E-02  0.101E-01  0.248E-02  0.105E-01  0.264E-02
   7.900  0.641E-01  0.146E-01  0.126E-01  0.281E-02  0.130E-01  0.299E-02  0.130E-01  0.299E-02  0.126E-01  0.281E-02  0.130E-01  0.299E-02
   8.000  0.820E-01  0.165E-01  0.162E-01  0.318E-02  0.166E-01  0.340E-02  0.166E-01  0.340E-02  0.162E-01  0.318E-02  0.166E-01  0.340E-02
   8.100  0.128E+00  0.188E-01  0.246E-01  0.360E-02  0.264E-01  0.386E-02  0.264E-01  0.386E-02  0.246E-01  0.360E-02  0.264E-01  0.386E-02
   8.200  0.322E+00  0.213E-01  0.608E-01  0.408E-02  0.667E-01  0.437E-02  0.667E-01  0.437E-02  0.608E-01  0.408E-02  0.667E-01  0.437E-02
   8.300  0.405E+00  0.241E-01  0.919E-01  0.463E-02  0.738E-01  0.494E-02  0.738E-01  0.494E-02  0.919E-01  0.463E-02  0.738E-01  0.494E-02
   8.400  0.507E+00  0.273E-01  0.129E+00  0.525E-02  0.828E-01  0.560E-02  0.828E-01  0.560E-02  0.129E+00  0.525E-02  0.828E-01  0.560E-02
   8.500  0.561E+00  0.309E-01  0.158E+00  0.595E-02  0.819E-01  0.633E-02  0.819E-01  0.633E-02  0.158E+00  0.595E-02  0.819E-01  0.633E-02
   8.600  0.639E+00  0.350E-01  0.192E+00  0.673E-02  0.853E-01  0.717E-02  0.853E-01  0.717E-02  0.192E+00  0.673E-02  0.853E-01  0.717E-02
   8.700  0.753E+00  0.402E-01  0.238E+00  0.770E-02  0.923E-01  0.827E-02  0.923E-01  0.827E-02  0.238E+00  0.770E-02  0.923E-01  0.827E-02
   8.800  0.107E+01  0.463E-01  0.367E+00  0.882E-02  0.113E+00  0.955E-02  0.113E+00  0.955E-02  0.367E+00  0.882E-02  0.113E+00  0.955E-02
   8.900  0.103E+01  0.529E-01  0.353E+00  0.101E-01  0.109E+00  0.109E-01  0.109E+00  0.109E-01  0.353E+00  0.101E-01  0.109E+00  0.109E-01
   9.000  0.732E+00  0.606E-01  0.215E+00  0.115E-01  0.100E+00  0.125E-01  0.100E+00  0.125E-01  0.215E+00  0.115E-01  0.100E+00  0.125E-01
   9.100  0.637E+00  0.700E-01  0.167E+00  0.133E-01  0.101E+00  0.145E-01  0.101E+00  0.145E-01  0.167E+00  0.133E-01  0.101E+00  0.145E-01
   9.200  0.550E+00  0.821E-01  0.130E+00  0.155E-01  0.971E-01  0.170E-01  0.971E-01  0.170E-01  0.130E+00  0.155E-01  0.971E-01  0.170E-01
   9.300  0.463E+00  0.966E-01  0.110E+00  0.183E-01  0.808E-01  0.200E-01  0.808E-01  0.200E-01  0.110E+00  0.183E-01  0.808E-01  0.200E-01
   9.400  0.311E+00  0.114E+00  0.102E+00  0.215E-01  0.356E-01  0.236E-01  0.356E-01  0.236E-01  0.102E+00  0.215E-01  0.356E-01  0.236E-01
   9.500  0.311E+00  0.146E+00  0.111E+00  0.269E-01  0.295E-01  0.307E-01  0.295E-01  0.307E-01  0.111E+00  0.269E-01  0.295E-01  0.307E-01
   9.600  0.157E+01  0.230E+00  0.166E+00  0.405E-01  0.413E+00  0.497E-01  0.413E+00  0.497E-01  0.166E+00  0.405E-01  0.413E+00  0.497E-01
   9.700  0.209E+01  0.240E+00  0.262E+00  0.429E-01  0.521E+00  0.513E-01  0.521E+00  0.513E-01  0.262E+00  0.429E-01  0.521E+00  0.513E-01
   9.800  0.127E+01  0.254E+00  0.172E+00  0.461E-01  0.309E+00  0.539E-01  0.309E+00  0.539E-01  0.172E+00  0.461E-01  0.309E+00  0.539E-01
   9.900  0.105E+01  0.256E+00  0.150E+00  0.475E-01  0.250E+00  0.535E-01  0.250E+00  0.535E-01  0.150E+00  0.475E-01  0.250E+00  0.535E-01
  10.000  0.916E+00  0.259E+00  0.937E-01  0.502E-01  0.243E+00  0.528E-01  0.243E+00  0.528E-01  0.937E-01  0.502E-01  0.243E+00  0.528E-01
  10.100  0.873E+00  0.276E+00  0.991E-01  0.560E-01  0.225E+00  0.548E-01  0.225E+00  0.548E-01  0.991E-01  0.560E-01  0.225E+00  0.548E-01
  10.200  0.104E+01  0.293E+00  0.123E+00  0.617E-01  0.266E+00  0.566E-01  0.266E+00  0.566E-01  0.123E+00  0.617E-01  0.266E+00  0.566E-01
  10.300  0.122E+01  0.308E+00  0.139E+00  0.670E-01  0.315E+00  0.582E-01  0.315E+00  0.582E-01  0.139E+00  0.670E-01  0.315E+00  0.582E-01
  10.400  0.179E+01  0.417E+00  0.226E+00  0.118E+00  0.445E+00  0.606E-01  0.445E+00  0.606E-01  0.226E+00  0.118E+00  0.445E+00  0.606E-01
  10.500  0.168E+01  0.554E+00  0.190E+00  0.182E+00  0.435E+00  0.635E-01  0.435E+00  0.635E-01  0.190E+00  0.182E+00  0.435E+00  0.635E-01
  10.600  0.110E+01  0.600E+00  0.114E+00  0.203E+00  0.290E+00  0.646E-01  0.290E+00  0.646E-01  0.114E+00  0.203E+00  0.290E+00  0.646E-01
  10.700  0.584E+00  0.594E+00  0.813E-01  0.200E+00  0.140E+00  0.644E-01  0.140E+00  0.644E-01  0.813E-01  0.200E+00  0.140E+00  0.644E-01
  10.800  0.464E+00  0.443E+00  0.671E-01  0.132E+00  0.110E+00  0.596E-01  0.110E+00  0.596E-01  0.671E-01  0.132E+00  0.110E+00  0.596E-01
  10.900  0.410E+00  0.443E+00  0.579E-01  0.116E+00  0.981E-01  0.702E-01  0.981E-01  0.702E-01  0.579E-01  0.116E+00  0.981E-01  0.702E-01
  11.000  0.403E+00  0.261E+00  0.582E-01  0.810E-01  0.954E-01  0.330E-01  0.954E-01  0.330E-01  0.582E-01  0.810E-01  0.954E-01  0.330E-01
  11.100  0.469E+00  0.225E+00  0.735E-01  0.796E-01  0.107E+00  0.218E-01  0.107E+00  0.218E-01  0.735E-01  0.796E-01  0.107E+00  0.218E-01
  11.200  0.518E+00  0.218E+00  0.794E-01  0.815E-01  0.120E+00  0.182E-01  0.120E+00  0.182E-01  0.794E-01  0.815E-01  0.120E+00  0.182E-01
  11.300  0.627E+00  0.191E+00  0.104E+00  0.865E-01  0.139E+00  0.602E-02  0.139E+00  0.602E-02  0.104E+00  0.865E-01  0.139E+00  0.602E-02
  11.400  0.996E+00  0.730E+00  0.187E+00  0.111E+00  0.207E+00  0.169E+00  0.207E+00  0.169E+00  0.187E+00  0.111E+00  0.207E+00  0.169E+00
  11.500  0.142E+01  0.125E+01  0.326E+00  0.184E+00  0.255E+00  0.295E+00  0.255E+00  0.295E+00  0.326E+00  0.184E+00  0.255E+00  0.295E+00
  11.600  0.203E+01  0.131E+01  0.546E+00  0.159E+00  0.311E+00  0.330E+00  0.311E+00  0.330E+00  0.546E+00  0.159E+00  0.311E+00  0.330E+00
  11.700  0.193E+01  0.135E+01  0.505E+00  0.149E+00  0.306E+00  0.351E+00  0.306E+00  0.351E+00  0.505E+00  0.149E+00  0.306E+00  0.351E+00
  11.800  0.266E+01  0.130E+01  0.875E+00  0.160E+00  0.302E+00  0.326E+00  0.302E+00  0.326E+00  0.875E+00  0.160E+00  0.302E+00  0.326E+00
  11.900  0.259E+01  0.120E+01  0.908E+00  0.136E+00  0.257E+00  0.310E+00  0.257E+00  0.310E+00  0.908E+00  0.136E+00  0.257E+00  0.310E+00
  12.000  0.171E+01  0.104E+01  0.531E+00  0.957E-01  0.216E+00  0.282E+00  0.216E+00  0.282E+00  0.531E+00  0.957E-01  0.216E+00  0.282E+00
  12.100  0.109E+01  0.964E+00  0.260E+00  0.848E-01  0.190E+00  0.265E+00  0.190E+00  0.265E+00  0.260E+00  0.848E-01  0.190E+00  0.265E+00
  12.200  0.959E+00  0.101E+01  0.184E+00  0.875E-01  0.197E+00  0.280E+00  0.197E+00  0.280E+00  0.184E+00  0.875E-01  0.197E+00  0.280E+00
  12.300  0.861E+00  0.120E+01  0.132E+00  0.119E+00  0.199E+00  0.319E+00  0.199E+00  0.319E+00  0.132E+00  0.119E+00  0.199E+00  0.319E+00
  12.400  0.776E+00  0.129E+01  0.986E-01  0.132E+00  0.193E+00  0.341E+00  0.193E+00  0.341E+00  0.986E-01  0.132E+00  0.193E+00  0.341E+00
  12.500  0.741E+00  0.102E+01  0.692E-01  0.846E-01  0.201E+00  0.283E+00  0.201E+00  0.283E+00  0.692E-01  0.846E-01  0.201E+00  0.283E+00
  12.600  0.781E+00  0.855E+00  0.527E-01  0.519E-01  0.225E+00  0.250E+00  0.225E+00  0.250E+00  0.527E-01  0.519E-01  0.225E+00  0.250E+00
  12.700  0.805E+00  0.814E+00  0.390E-01  0.344E-01  0.242E+00  0.248E+00  0.242E+00  0.248E+00  0.390E-01  0.344E-01  0.242E+00  0.248E+00
  12.800  0.803E+00  0.610E+00  0.284E-01  0.183E-01  0.249E+00  0.191E+00  0.249E+00  0.191E+00  0.284E-01  0.183E-01  0.249E+00  0.191E+00
  12.900  0.536E+00  0.240E+00  0.202E-01  0.115E-01  0.165E+00  0.723E-01  0.165E+00  0.723E-01  0.202E-01  0.115E-01  0.165E+00  0.723E-01
  13.000  0.225E+00  0.194E+00  0.147E-01  0.821E-02  0.651E-01  0.591E-01  0.651E-01  0.591E-01  0.147E-01  0.821E-02  0.651E-01  0.591E-01
  13.100  0.911E-01  0.172E+00  0.123E-01  0.583E-02  0.222E-01  0.535E-01  0.222E-01  0.535E-01  0.123E-01  0.583E-02  0.222E-01  0.535E-01
  13.200  0.869E-01  0.188E+00  0.113E-01  0.589E-02  0.215E-01  0.588E-01  0.215E-01  0.588E-01  0.113E-01  0.589E-02  0.215E-01  0.588E-01
  13.300  0.825E-01  0.173E+00  0.103E-01  0.627E-02  0.206E-01  0.534E-01  0.206E-01  0.534E-01  0.103E-01  0.627E-02  0.206E-01  0.534E-01
  13.400  0.773E-01  0.189E+00  0.930E-02  0.849E-02  0.196E-01  0.575E-01  0.196E-01  0.575E-01  0.930E-02  0.849E-02  0.196E-01  0.575E-01
  13.500  0.740E-01  0.240E+00  0.895E-02  0.137E-01  0.187E-01  0.709E-01  0.187E-01  0.709E-01  0.895E-02  0.137E-01  0.187E-01  0.709E-01
  13.600  0.727E-01  0.286E+00  0.898E-02  0.191E-01  0.182E-01  0.826E-01  0.182E-01  0.826E-01  0.898E-02  0.191E-01  0.182E-01  0.826E-01
  13.700  0.695E-01  0.387E+00  0.845E-02  0.300E-01  0.175E-01  0.109E+00  0.175E-01  0.109E+00  0.845E-02  0.300E-01  0.175E-01  0.109E+00
  13.800  0.661E-01  0.425E+00  0.809E-02  0.581E-01  0.167E-01  0.103E+00  0.167E-01  0.103E+00  0.809E-02  0.581E-01  0.167E-01  0.103E+00
  13.900  0.626E-01  0.533E+00  0.770E-02  0.845E-01  0.157E-01  0.121E+00  0.157E-01  0.121E+00  0.770E-02  0.845E-01  0.157E-01  0.121E+00
  14.000  0.590E-01  0.705E+00  0.728E-02  0.124E+00  0.148E-01  0.152E+00  0.148E-01  0.152E+00  0.728E-02  0.124E+00  0.148E-01  0.152E+00
  14.100  0.536E-01  0.833E+00  0.681E-02  0.159E+00  0.133E-01  0.172E+00  0.133E-01  0.172E+00  0.681E-02  0.159E+00  0.133E-01  0.172E+00
  14.200  0.500E-01  0.890E+00  0.639E-02  0.188E+00  0.124E-01  0.171E+00  0.124E-01  0.171E+00  0.639E-02  0.188E+00  0.124E-01  0.171E+00
  14.300  0.472E-01  0.105E+01  0.597E-02  0.230E+00  0.118E-01  0.197E+00  0.118E-01  0.197E+00  0.597E-02  0.230E+00  0.118E-01  0.197E+00
  14.400  0.446E-01  0.125E+01  0.557E-02  0.311E+00  0.112E-01  0.211E+00  0.112E-01  0.211E+00  0.557E-02  0.311E+00  0.112E-01  0.211E+00
  14.500  0.425E-01  0.141E+01  0.524E-02  0.393E+00  0.107E-01  0.209E+00  0.107E-01  0.209E+00  0.524E-02  0.393E+00  0.107E-01  0.209E+00
  14.600  0.405E-01  0.158E+01  0.496E-02  0.479E+00  0.102E-01  0.207E+00  0.102E-01  0.207E+00  0.496E-02  0.479E+00  0.102E-01  0.207E+00
  14.700  0.384E-01  0.130E+01  0.469E-02  0.389E+00  0.967E-02  0.175E+00  0.967E-02  0.175E+00  0.469E-02  0.389E+00  0.967E-02  0.175E+00
  14.800  0.363E-01  0.972E+00  0.442E-02  0.302E+00  0.914E-02  0.122E+00  0.914E-02  0.122E+00  0.442E-02  0.302E+00  0.914E-02  0.122E+00
  14.900  0.342E-01  0.134E+01  0.416E-02  0.481E+00  0.862E-02  0.125E+00  0.862E-02  0.125E+00  0.416E-02  0.481E+00  0.862E-02  0.125E+00
  15.000  0.329E-01  0.195E+01  0.409E-02  0.665E+00  0.823E-02  0.206E+00  0.823E-02  0.206E+00  0.409E-02  0.665E+00  0.823E-02  0.206E+00
  15.100  0.301E-01  0.456E+01  0.364E-02  0.178E+01  0.761E-02  0.335E+00  0.761E-02  0.335E+00  0.364E-02  0.178E+01  0.761E-02  0.335E+00
  15.200  0.286E-01  0.144E+01  0.346E-02  0.320E+00  0.722E-02  0.268E+00  0.722E-02  0.268E+00  0.346E-02  0.320E+00  0.722E-02  0.268E+00
  15.300  0.272E-01  0.106E+01  0.328E-02  0.190E+00  0.688E-02  0.225E+00  0.688E-02  0.225E+00  0.328E-02  0.190E+00  0.688E-02  0.225E+00
  15.400  0.260E-01  0.985E+00  0.309E-02  0.979E-01  0.661E-02  0.263E+00  0.661E-02  0.263E+00  0.309E-02  0.979E-01  0.661E-02  0.263E+00
  15.500  0.241E-01  0.473E+00  0.290E-02  0.700E-01  0.610E-02  0.111E+00  0.610E-02  0.111E+00  0.290E-02  0.700E-01  0.610E-02  0.111E+00
  15.600  0.224E-01  0.250E+00  0.272E-02  0.537E-01  0.566E-02  0.474E-01  0.566E-02  0.474E-01  0.272E-02  0.537E-01  0.566E-02  0.474E-01
  15.700  0.209E-01  0.200E+00  0.254E-02  0.453E-01  0.527E-02  0.366E-01  0.527E-02  0.366E-01  0.254E-02  0.453E-01  0.527E-02  0.366E-01
  15.800  0.193E-01  0.184E+00  0.237E-02  0.361E-01  0.487E-02  0.372E-01  0.487E-02  0.372E-01  0.237E-02  0.361E-01  0.487E-02  0.372E-01
  15.900  0.180E-01  0.177E+00  0.219E-02  0.333E-01  0.453E-02  0.368E-01  0.453E-02  0.368E-01  0.219E-02  0.333E-01  0.453E-02  0.368E-01
  16.000  0.167E-01  0.166E+00  0.203E-02  0.307E-01  0.422E-02  0.348E-01  0.422E-02  0.348E-01  0.203E-02  0.307E-01  0.422E-02  0.348E-01
  16.100  0.155E-01  0.153E+00  0.187E-02  0.283E-01  0.392E-02  0.321E-01  0.392E-02  0.321E-01  0.187E-02  0.283E-01  0.392E-02  0.321E-01
  16.200  0.144E-01  0.139E+00  0.173E-02  0.262E-01  0.366E-02  0.289E-01  0.366E-02  0.289E-01  0.173E-02  0.262E-01  0.366E-02  0.289E-01
  16.300  0.135E-01  0.128E+00  0.160E-02  0.242E-01  0.343E-02  0.266E-01  0.343E-02  0.266E-01  0.160E-02  0.242E-01  0.343E-02  0.266E-01
  16.400  0.126E-01  0.117E+00  0.148E-02  0.218E-01  0.321E-02  0.244E-01  0.321E-02  0.244E-01  0.148E-02  0.218E-01  0.321E-02  0.244E-01
  16.500  0.121E-01  0.109E+00  0.150E-02  0.204E-01  0.302E-02  0.227E-01  0.302E-02  0.227E-01  0.150E-02  0.204E-01  0.302E-02  0.227E-01
  16.600  0.109E-01  0.981E-01  0.129E-02  0.180E-01  0.278E-02  0.207E-01  0.278E-02  0.207E-01  0.129E-02  0.180E-01  0.278E-02  0.207E-01
  16.700  0.102E-01  0.907E-01  0.120E-02  0.164E-01  0.259E-02  0.193E-01  0.259E-02  0.193E-01  0.120E-02  0.164E-01  0.259E-02  0.193E-01
  16.800  0.943E-02  0.842E-01  0.111E-02  0.150E-01  0.240E-02  0.181E-01  0.240E-02  0.181E-01  0.111E-02  0.150E-01  0.240E-02  0.181E-01
  16.900  0.875E-02  0.789E-01  0.103E-02  0.139E-01  0.223E-02  0.170E-01  0.223E-02  0.170E-01  0.103E-02  0.139E-01  0.223E-02  0.170E-01
  17.000  0.810E-02  0.739E-01  0.956E-03  0.130E-01  0.206E-02  0.160E-01  0.206E-02  0.160E-01  0.956E-03  0.130E-01  0.206E-02  0.160E-01
  17.100  0.748E-02  0.691E-01  0.882E-03  0.121E-01  0.191E-02  0.149E-01  0.191E-02  0.149E-01  0.882E-03  0.121E-01  0.191E-02  0.149E-01
  17.200  0.689E-02  0.645E-01  0.811E-03  0.113E-01  0.176E-02  0.140E-01  0.176E-02  0.140E-01  0.811E-03  0.113E-01  0.176E-02  0.140E-01
  17.300  0.633E-02  0.601E-01  0.743E-03  0.105E-01  0.161E-02  0.130E-01  0.161E-02  0.130E-01  0.743E-03  0.105E-01  0.161E-02  0.130E-01
  17.400  0.590E-02  0.557E-01  0.694E-03  0.965E-02  0.150E-02  0.121E-01  0.150E-02  0.121E-01  0.694E-03  0.965E-02  0.150E-02  0.121E-01
  17.500  0.542E-02  0.510E-01  0.632E-03  0.889E-02  0.138E-02  0.111E-01  0.138E-02  0.111E-01  0.632E-03  0.889E-02  0.138E-02  0.111E-01
  17.600  0.499E-02  0.467E-01  0.574E-03  0.814E-02  0.128E-02  0.101E-01  0.128E-02  0.101E-01  0.574E-03  0.814E-02  0.128E-02  0.101E-01
  17.700  0.460E-02  0.429E-01  0.519E-03  0.743E-02  0.119E-02  0.934E-02  0.119E-02  0.934E-02  0.519E-03  0.743E-02  0.119E-02  0.934E-02
  17.800  0.416E-02  0.413E-01  0.468E-03  0.744E-02  0.108E-02  0.881E-02  0.108E-02  0.881E-02  0.468E-03  0.744E-02  0.108E-02  0.881E-02
  17.900  0.373E-02  0.369E-01  0.420E-03  0.630E-02  0.962E-03  0.810E-02  0.962E-03  0.810E-02  0.420E-03  0.630E-02  0.962E-03  0.810E-02
  18.000  0.334E-02  0.344E-01  0.377E-03  0.587E-02  0.862E-03  0.753E-02  0.862E-03  0.753E-02  0.377E-03  0.587E-02  0.862E-03  0.753E-02
  18.100  0.304E-02  0.319E-01  0.352E-03  0.546E-02  0.778E-03  0.699E-02  0.778E-03  0.699E-02  0.352E-03  0.546E-02  0.778E-03  0.699E-02
  18.200  0.293E-02  0.296E-01  0.349E-03  0.507E-02  0.746E-03  0.648E-02  0.746E-03  0.648E-02  0.349E-03  0.507E-02  0.746E-03  0.648E-02
  18.300  0.227E-02  0.274E-01  0.281E-03  0.470E-02  0.570E-03  0.600E-02  0.570E-03  0.600E-02  0.281E-03  0.470E-02  0.570E-03  0.600E-02
  18.400  0.178E-02  0.254E-01  0.233E-03  0.434E-02  0.437E-03  0.556E-02  0.437E-03  0.556E-02  0.233E-03  0.434E-02  0.437E-03  0.556E-02
  18.500  0.160E-02  0.234E-01  0.210E-03  0.401E-02  0.392E-03  0.514E-02  0.392E-03  0.514E-02  0.210E-03  0.401E-02  0.392E-03  0.514E-02
  18.600  0.143E-02  0.216E-01  0.189E-03  0.369E-02  0.350E-03  0.475E-02  0.350E-03  0.475E-02  0.189E-03  0.369E-02  0.350E-03  0.475E-02
  18.700  0.127E-02  0.199E-01  0.169E-03  0.338E-02  0.311E-03  0.437E-02  0.311E-03  0.437E-02  0.169E-03  0.338E-02  0.311E-03  0.437E-02
  18.800  0.113E-02  0.186E-01  0.151E-03  0.318E-02  0.275E-03  0.409E-02  0.275E-03  0.409E-02  0.151E-03  0.318E-02  0.275E-03  0.409E-02
  18.900  0.986E-03  0.171E-01  0.133E-03  0.290E-02  0.240E-03  0.378E-02  0.240E-03  0.378E-02  0.133E-03  0.290E-02  0.240E-03  0.378E-02
  19.000  0.853E-03  0.157E-01  0.116E-03  0.263E-02  0.207E-03  0.349E-02  0.207E-03  0.349E-02  0.116E-03  0.263E-02  0.207E-03  0.349E-02
  19.100  0.732E-03  0.154E-01  0.100E-03  0.242E-02  0.177E-03  0.352E-02  0.177E-03  0.352E-02  0.100E-03  0.242E-02  0.177E-03  0.352E-02
  19.200  0.624E-03  0.132E-01  0.864E-04  0.230E-02  0.151E-03  0.287E-02  0.151E-03  0.287E-02  0.864E-04  0.230E-02  0.151E-03  0.287E-02
  19.300  0.528E-03  0.118E-01  0.740E-04  0.206E-02  0.127E-03  0.256E-02  0.127E-03  0.256E-02  0.740E-04  0.206E-02  0.127E-03  0.256E-02
  19.400  0.443E-03  0.106E-01  0.629E-04  0.185E-02  0.106E-03  0.230E-02  0.106E-03  0.230E-02  0.629E-04  0.185E-02  0.106E-03  0.230E-02
  19.500  0.368E-03  0.104E-01  0.531E-04  0.181E-02  0.874E-04  0.226E-02  0.874E-04  0.226E-02  0.531E-04  0.181E-02  0.874E-04  0.226E-02
  19.600  0.303E-03  0.691E-02  0.445E-04  0.134E-02  0.712E-04  0.141E-02  0.712E-04  0.141E-02  0.445E-04  0.134E-02  0.712E-04  0.141E-02
  19.700  0.245E-03  0.621E-02  0.369E-04  0.121E-02  0.572E-04  0.126E-02  0.572E-04  0.126E-02  0.369E-04  0.121E-02  0.572E-04  0.126E-02
  19.800  0.212E-03  0.555E-02  0.303E-04  0.109E-02  0.504E-04  0.112E-02  0.504E-04  0.112E-02  0.303E-04  0.109E-02  0.504E-04  0.112E-02
  19.900  0.129E-03  0.493E-02  0.248E-04  0.973E-03  0.266E-04  0.995E-03  0.266E-04  0.995E-03  0.248E-04  0.973E-03  0.266E-04  0.995E-03
  20.000  0.393E-03  0.435E-02  0.430E-04  0.863E-03  0.102E-03  0.875E-03  0.102E-03  0.875E-03  0.430E-04  0.863E-03  0.102E-03  0.875E-03
  20.100  0.143E-02  0.377E-02  0.944E-04  0.749E-03  0.412E-03  0.757E-03  0.412E-03  0.757E-03  0.944E-04  0.749E-03  0.412E-03  0.757E-03
