# E (eV)  dosup(E)   dosdw(E)  pdosup(E)  pdosdw(E)
   5.000  0.126E-01  0.878E-02  0.126E-01  0.875E-02
   5.100  0.166E-01  0.136E-01  0.166E-01  0.136E-01
   5.200  0.210E-01  0.172E-01  0.209E-01  0.171E-01
   5.300  0.260E-01  0.220E-01  0.259E-01  0.220E-01
   5.400  0.290E-01  0.264E-01  0.289E-01  0.263E-01
   5.500  0.288E-01  0.288E-01  0.288E-01  0.287E-01
   5.600  0.317E-01  0.286E-01  0.316E-01  0.285E-01
   5.700  0.347E-01  0.313E-01  0.347E-01  0.312E-01
   5.800  0.379E-01  0.341E-01  0.379E-01  0.340E-01
   5.900  0.413E-01  0.371E-01  0.413E-01  0.370E-01
   6.000  0.438E-01  0.402E-01  0.437E-01  0.401E-01
   6.100  0.468E-01  0.422E-01  0.467E-01  0.421E-01
   6.200  0.494E-01  0.446E-01  0.493E-01  0.445E-01
   6.300  0.511E-01  0.466E-01  0.510E-01  0.464E-01
   6.400  0.534E-01  0.478E-01  0.533E-01  0.476E-01
   6.500  0.566E-01  0.494E-01  0.565E-01  0.493E-01
   6.600  0.602E-01  0.517E-01  0.601E-01  0.515E-01
   6.700  0.641E-01  0.543E-01  0.640E-01  0.541E-01
   6.800  0.683E-01  0.571E-01  0.682E-01  0.570E-01
   6.900  0.725E-01  0.601E-01  0.724E-01  0.599E-01
   7.000  0.761E-01  0.633E-01  0.759E-01  0.631E-01
   7.100  0.807E-01  0.652E-01  0.805E-01  0.649E-01
   7.200  0.869E-01  0.672E-01  0.867E-01  0.669E-01
   7.300  0.932E-01  0.696E-01  0.930E-01  0.693E-01
   7.400  0.996E-01  0.725E-01  0.993E-01  0.722E-01
   7.500  0.107E+00  0.754E-01  0.107E+00  0.751E-01
   7.600  0.116E+00  0.782E-01  0.115E+00  0.779E-01
   7.700  0.127E+00  0.812E-01  0.126E+00  0.808E-01
   7.800  0.140E+00  0.843E-01  0.140E+00  0.840E-01
   7.900  0.156E+00  0.878E-01  0.156E+00  0.874E-01
   8.000  0.180E+00  0.918E-01  0.180E+00  0.914E-01
   8.100  0.242E+00  0.961E-01  0.241E+00  0.957E-01
   8.200  0.451E+00  0.101E+00  0.449E+00  0.100E+00
   8.300  0.527E+00  0.105E+00  0.525E+00  0.105E+00
   8.400  0.621E+00  0.110E+00  0.620E+00  0.110E+00
   8.500  0.669E+00  0.116E+00  0.667E+00  0.115E+00
   8.600  0.745E+00  0.121E+00  0.743E+00  0.121E+00
   8.700  0.853E+00  0.129E+00  0.851E+00  0.128E+00
   8.800  0.117E+01  0.137E+00  0.117E+01  0.136E+00
   8.900  0.112E+01  0.146E+00  0.112E+01  0.144E+00
   9.000  0.778E+00  0.155E+00  0.776E+00  0.153E+00
   9.100  0.667E+00  0.166E+00  0.665E+00  0.165E+00
   9.200  0.569E+00  0.181E+00  0.567E+00  0.179E+00
   9.300  0.475E+00  0.197E+00  0.473E+00  0.195E+00
   9.400  0.316E+00  0.216E+00  0.315E+00  0.214E+00
   9.500  0.315E+00  0.254E+00  0.314E+00  0.252E+00
   9.600  0.158E+01  0.351E+00  0.157E+01  0.348E+00
   9.700  0.210E+01  0.355E+00  0.209E+01  0.352E+00
   9.800  0.128E+01  0.363E+00  0.128E+01  0.360E+00
   9.900  0.106E+01  0.357E+00  0.106E+01  0.353E+00
  10.000  0.940E+00  0.355E+00  0.937E+00  0.351E+00
  10.100  0.906E+00  0.369E+00  0.901E+00  0.365E+00
  10.200  0.109E+01  0.382E+00  0.108E+01  0.377E+00
  10.300  0.130E+01  0.391E+00  0.128E+01  0.386E+00
  10.400  0.191E+01  0.495E+00  0.190E+01  0.489E+00
  10.500  0.180E+01  0.636E+00  0.179E+01  0.627E+00
  10.600  0.117E+01  0.673E+00  0.116E+01  0.663E+00
  10.700  0.640E+00  0.651E+00  0.629E+00  0.641E+00
  10.800  0.508E+00  0.482E+00  0.498E+00  0.473E+00
  10.900  0.447E+00  0.476E+00  0.438E+00  0.466E+00
  11.000  0.434E+00  0.276E+00  0.425E+00  0.269E+00
  11.100  0.495E+00  0.235E+00  0.488E+00  0.229E+00
  11.200  0.541E+00  0.228E+00  0.534E+00  0.220E+00
  11.300  0.647E+00  0.199E+00  0.640E+00  0.192E+00
  11.400  0.101E+01  0.751E+00  0.101E+01  0.732E+00
  11.500  0.143E+01  0.129E+01  0.143E+01  0.126E+01
  11.600  0.204E+01  0.135E+01  0.204E+01  0.132E+01
  11.700  0.194E+01  0.141E+01  0.194E+01  0.137E+01
  11.800  0.267E+01  0.137E+01  0.266E+01  0.132E+01
  11.900  0.261E+01  0.128E+01  0.261E+01  0.123E+01
  12.000  0.176E+01  0.112E+01  0.175E+01  0.108E+01
  12.100  0.114E+01  0.105E+01  0.113E+01  0.101E+01
  12.200  0.102E+01  0.112E+01  0.101E+01  0.107E+01
  12.300  0.921E+00  0.135E+01  0.911E+00  0.129E+01
  12.400  0.834E+00  0.147E+01  0.825E+00  0.140E+01
  12.500  0.794E+00  0.116E+01  0.785E+00  0.110E+01
  12.600  0.834E+00  0.956E+00  0.826E+00  0.902E+00
  12.700  0.858E+00  0.894E+00  0.851E+00  0.847E+00
  12.800  0.856E+00  0.669E+00  0.850E+00  0.631E+00
  12.900  0.585E+00  0.290E+00  0.580E+00  0.255E+00
  13.000  0.275E+00  0.237E+00  0.271E+00  0.204E+00
  13.100  0.144E+00  0.206E+00  0.140E+00  0.180E+00
  13.200  0.145E+00  0.212E+00  0.139E+00  0.193E+00
  13.300  0.144E+00  0.174E+00  0.137E+00  0.174E+00
  13.400  0.142E+00  0.191E+00  0.133E+00  0.190E+00
  13.500  0.144E+00  0.242E+00  0.134E+00  0.242E+00
  13.600  0.159E+00  0.289E+00  0.140E+00  0.288E+00
  13.700  0.158E+00  0.390E+00  0.138E+00  0.389E+00
  13.800  0.159E+00  0.429E+00  0.137E+00  0.427E+00
  13.900  0.159E+00  0.538E+00  0.136E+00  0.536E+00
  14.000  0.158E+00  0.713E+00  0.133E+00  0.710E+00
  14.100  0.152E+00  0.842E+00  0.125E+00  0.839E+00
  14.200  0.150E+00  0.899E+00  0.121E+00  0.896E+00
  14.300  0.148E+00  0.106E+01  0.118E+00  0.106E+01
  14.400  0.147E+00  0.126E+01  0.115E+00  0.126E+01
  14.500  0.147E+00  0.142E+01  0.112E+00  0.142E+01
  14.600  0.147E+00  0.159E+01  0.110E+00  0.158E+01
  14.700  0.146E+00  0.131E+01  0.108E+00  0.130E+01
  14.800  0.145E+00  0.975E+00  0.105E+00  0.974E+00
  14.900  0.144E+00  0.134E+01  0.103E+00  0.134E+01
  15.000  0.149E+00  0.197E+01  0.102E+00  0.196E+01
  15.100  0.140E+00  0.461E+01  0.972E-01  0.460E+01
  15.200  0.140E+00  0.150E+01  0.954E-01  0.149E+01
  15.300  0.140E+00  0.112E+01  0.940E-01  0.110E+01
  15.400  0.141E+00  0.103E+01  0.930E-01  0.103E+01
  15.500  0.138E+00  0.525E+00  0.901E-01  0.518E+00
  15.600  0.136E+00  0.306E+00  0.873E-01  0.301E+00
  15.700  0.134E+00  0.263E+00  0.845E-01  0.255E+00
  15.800  0.131E+00  0.248E+00  0.811E-01  0.238E+00
  15.900  0.129E+00  0.249E+00  0.777E-01  0.235E+00
  16.000  0.126E+00  0.246E+00  0.745E-01  0.228E+00
  16.100  0.123E+00  0.239E+00  0.712E-01  0.217E+00
  16.200  0.121E+00  0.230E+00  0.683E-01  0.204E+00
  16.300  0.120E+00  0.223E+00  0.657E-01  0.193E+00
  16.400  0.118E+00  0.214E+00  0.630E-01  0.180E+00
  16.500  0.123E+00  0.211E+00  0.635E-01  0.173E+00
  16.600  0.114E+00  0.198E+00  0.581E-01  0.162E+00
  16.700  0.112E+00  0.192E+00  0.557E-01  0.154E+00
  16.800  0.110E+00  0.187E+00  0.534E-01  0.147E+00
  16.900  0.108E+00  0.184E+00  0.511E-01  0.141E+00
  17.000  0.105E+00  0.181E+00  0.489E-01  0.136E+00
  17.100  0.103E+00  0.177E+00  0.466E-01  0.131E+00
  17.200  0.101E+00  0.174E+00  0.444E-01  0.126E+00
  17.300  0.988E-01  0.171E+00  0.422E-01  0.121E+00
  17.400  0.986E-01  0.166E+00  0.409E-01  0.115E+00
  17.500  0.967E-01  0.161E+00  0.389E-01  0.108E+00
  17.600  0.950E-01  0.155E+00  0.372E-01  0.101E+00
  17.700  0.936E-01  0.150E+00  0.359E-01  0.950E-01
  17.800  0.904E-01  0.154E+00  0.339E-01  0.933E-01
  17.900  0.867E-01  0.142E+00  0.315E-01  0.851E-01
  18.000  0.832E-01  0.139E+00  0.294E-01  0.809E-01
  18.100  0.820E-01  0.135E+00  0.285E-01  0.767E-01
  18.200  0.878E-01  0.132E+00  0.280E-01  0.727E-01
  18.300  0.718E-01  0.128E+00  0.224E-01  0.689E-01
  18.400  0.588E-01  0.125E+00  0.205E-01  0.652E-01
  18.500  0.562E-01  0.122E+00  0.192E-01  0.616E-01
  18.600  0.535E-01  0.118E+00  0.179E-01  0.581E-01
  18.700  0.507E-01  0.115E+00  0.166E-01  0.546E-01
  18.800  0.480E-01  0.114E+00  0.153E-01  0.523E-01
  18.900  0.450E-01  0.111E+00  0.140E-01  0.492E-01
  19.000  0.418E-01  0.108E+00  0.126E-01  0.463E-01
  19.100  0.387E-01  0.110E+00  0.114E-01  0.467E-01
  19.200  0.359E-01  0.103E+00  0.103E-01  0.417E-01
  19.300  0.332E-01  0.966E-01  0.924E-02  0.374E-01
  19.400  0.307E-01  0.906E-01  0.832E-02  0.344E-01
  19.500  0.284E-01  0.936E-01  0.748E-02  0.327E-01
  19.600  0.263E-01  0.676E-01  0.673E-02  0.257E-01
  19.700  0.243E-01  0.639E-01  0.606E-02  0.237E-01
  19.800  0.236E-01  0.603E-01  0.548E-02  0.217E-01
  19.900  0.186E-01  0.568E-01  0.496E-02  0.198E-01
  20.000  0.288E-01  0.532E-01  0.126E-01  0.179E-01
  20.100  0.517E-01  0.490E-01  0.317E-01  0.159E-01
