# E (eV)  ldosup(E)  ldosdw(E) pdosup(E)  pdosdw(E)  pdosup(E)  pdosdw(E)  pdosup(E)  pdosdw(E)  pdosup(E)  pdosdw(E)  pdosup(E)  pdosdw(E) 
  20.000  0.000E+00  0.000E+00  0.000E+00  0.000E+00  0.000E+00  0.000E+00  0.000E+00  0.000E+00  0.000E+00  0.000E+00  0.000E+00  0.000E+00
  20.050  0.000E+00  0.000E+00  0.000E+00  0.000E+00  0.000E+00  0.000E+00  0.000E+00  0.000E+00  0.000E+00  0.000E+00  0.000E+00  0.000E+00
  20.100  0.000E+00  0.000E+00  0.000E+00  0.000E+00  0.000E+00  0.000E+00  0.000E+00  0.000E+00  0.000E+00  0.000E+00  0.000E+00  0.000E+00
  20.150  0.000E+00  0.000E+00  0.000E+00  0.000E+00  0.000E+00  0.000E+00  0.000E+00  0.000E+00  0.000E+00  0.000E+00  0.000E+00  0.000E+00
  20.200  0.000E+00  0.000E+00  0.000E+00  0.000E+00  0.000E+00  0.000E+00  0.000E+00  0.000E+00  0.000E+00  0.000E+00  0.000E+00  0.000E+00
  20.250  0.000E+00  0.000E+00  0.000E+00  0.000E+00  0.000E+00  0.000E+00  0.000E+00  0.000E+00  0.000E+00  0.000E+00  0.000E+00  0.000E+00
  20.300  0.000E+00  0.000E+00  0.000E+00  0.000E+00  0.000E+00  0.000E+00  0.000E+00  0.000E+00  0.000E+00  0.000E+00  0.000E+00  0.000E+00
  20.350  0.000E+00  0.000E+00  0.000E+00  0.000E+00  0.000E+00  0.000E+00  0.000E+00  0.000E+00  0.000E+00  0.000E+00  0.000E+00  0.000E+00
  20.400  0.000E+00  0.000E+00  0.000E+00  0.000E+00  0.000E+00  0.000E+00  0.000E+00  0.000E+00  0.000E+00  0.000E+00  0.000E+00  0.000E+00
  20.450  0.000E+00  0.000E+00  0.000E+00  0.000E+00  0.000E+00  0.000E+00  0.000E+00  0.000E+00  0.000E+00  0.000E+00  0.000E+00  0.000E+00
  20.500  0.000E+00  0.000E+00  0.000E+00  0.000E+00  0.000E+00  0.000E+00  0.000E+00  0.000E+00  0.000E+00  0.000E+00  0.000E+00  0.000E+00
  20.550  0.000E+00  0.000E+00  0.000E+00  0.000E+00  0.000E+00  0.000E+00  0.000E+00  0.000E+00  0.000E+00  0.000E+00  0.000E+00  0.000E+00
  20.600  0.000E+00  0.000E+00  0.000E+00  0.000E+00  0.000E+00  0.000E+00  0.000E+00  0.000E+00  0.000E+00  0.000E+00  0.000E+00  0.000E+00
  20.650  0.000E+00  0.000E+00  0.000E+00  0.000E+00  0.000E+00  0.000E+00  0.000E+00  0.000E+00  0.000E+00  0.000E+00  0.000E+00  0.000E+00
  20.700  0.000E+00  0.000E+00  0.000E+00  0.000E+00  0.000E+00  0.000E+00  0.000E+00  0.000E+00  0.000E+00  0.000E+00  0.000E+00  0.000E+00
  20.750  0.000E+00  0.000E+00  0.000E+00  0.000E+00  0.000E+00  0.000E+00  0.000E+00  0.000E+00  0.000E+00  0.000E+00  0.000E+00  0.000E+00
  20.800  0.000E+00  0.000E+00  0.000E+00  0.000E+00  0.000E+00  0.000E+00  0.000E+00  0.000E+00  0.000E+00  0.000E+00  0.000E+00  0.000E+00
  20.850  0.000E+00  0.000E+00  0.000E+00  0.000E+00  0.000E+00  0.000E+00  0.000E+00  0.000E+00  0.000E+00  0.000E+00  0.000E+00  0.000E+00
  20.900  0.000E+00  0.000E+00  0.000E+00  0.000E+00  0.000E+00  0.000E+00  0.000E+00  0.000E+00  0.000E+00  0.000E+00  0.000E+00  0.000E+00
  20.950  0.000E+00  0.000E+00  0.000E+00  0.000E+00  0.000E+00  0.000E+00  0.000E+00  0.000E+00  0.000E+00  0.000E+00  0.000E+00  0.000E+00
  21.000  0.000E+00  0.000E+00  0.000E+00  0.000E+00  0.000E+00  0.000E+00  0.000E+00  0.000E+00  0.000E+00  0.000E+00  0.000E+00  0.000E+00
  21.050  0.000E+00  0.000E+00  0.000E+00  0.000E+00  0.000E+00  0.000E+00  0.000E+00  0.000E+00  0.000E+00  0.000E+00  0.000E+00  0.000E+00
  21.100  0.000E+00  0.000E+00  0.000E+00  0.000E+00  0.000E+00  0.000E+00  0.000E+00  0.000E+00  0.000E+00  0.000E+00  0.000E+00  0.000E+00
  21.150  0.000E+00  0.000E+00  0.000E+00  0.000E+00  0.000E+00  0.000E+00  0.000E+00  0.000E+00  0.000E+00  0.000E+00  0.000E+00  0.000E+00
  21.200  0.000E+00  0.000E+00  0.000E+00  0.000E+00  0.000E+00  0.000E+00  0.000E+00  0.000E+00  0.000E+00  0.000E+00  0.000E+00  0.000E+00
  21.250  0.000E+00  0.000E+00  0.000E+00  0.000E+00  0.000E+00  0.000E+00  0.000E+00  0.000E+00  0.000E+00  0.000E+00  0.000E+00  0.000E+00
  21.300  0.000E+00  0.000E+00  0.000E+00  0.000E+00  0.000E+00  0.000E+00  0.000E+00  0.000E+00  0.000E+00  0.000E+00  0.000E+00  0.000E+00
  21.350  0.000E+00  0.000E+00  0.000E+00  0.000E+00  0.000E+00  0.000E+00  0.000E+00  0.000E+00  0.000E+00  0.000E+00  0.000E+00  0.000E+00
  21.400  0.000E+00  0.000E+00  0.000E+00  0.000E+00  0.000E+00  0.000E+00  0.000E+00  0.000E+00  0.000E+00  0.000E+00  0.000E+00  0.000E+00
  21.450  0.000E+00  0.000E+00  0.000E+00  0.000E+00  0.000E+00  0.000E+00  0.000E+00  0.000E+00  0.000E+00  0.000E+00  0.000E+00  0.000E+00
  21.500  0.000E+00  0.000E+00  0.000E+00  0.000E+00  0.000E+00  0.000E+00  0.000E+00  0.000E+00  0.000E+00  0.000E+00  0.000E+00  0.000E+00
  21.550  0.000E+00  0.000E+00  0.000E+00  0.000E+00  0.000E+00  0.000E+00  0.000E+00  0.000E+00  0.000E+00  0.000E+00  0.000E+00  0.000E+00
  21.600  0.000E+00  0.000E+00  0.000E+00  0.000E+00  0.000E+00  0.000E+00  0.000E+00  0.000E+00  0.000E+00  0.000E+00  0.000E+00  0.000E+00
  21.650  0.000E+00  0.000E+00  0.000E+00  0.000E+00  0.000E+00  0.000E+00  0.000E+00  0.000E+00  0.000E+00  0.000E+00  0.000E+00  0.000E+00
  21.700  0.000E+00  0.000E+00  0.000E+00  0.000E+00  0.000E+00  0.000E+00  0.000E+00  0.000E+00  0.000E+00  0.000E+00  0.000E+00  0.000E+00
  21.750  0.000E+00  0.000E+00  0.000E+00  0.000E+00  0.000E+00  0.000E+00  0.000E+00  0.000E+00  0.000E+00  0.000E+00  0.000E+00  0.000E+00
  21.800  0.000E+00  0.000E+00  0.000E+00  0.000E+00  0.000E+00  0.000E+00  0.000E+00  0.000E+00  0.000E+00  0.000E+00  0.000E+00  0.000E+00
  21.850  0.000E+00  0.000E+00  0.000E+00  0.000E+00  0.000E+00  0.000E+00  0.000E+00  0.000E+00  0.000E+00  0.000E+00  0.000E+00  0.000E+00
  21.900  0.000E+00  0.000E+00  0.000E+00  0.000E+00  0.000E+00  0.000E+00  0.000E+00  0.000E+00  0.000E+00  0.000E+00  0.000E+00  0.000E+00
  21.950  0.000E+00  0.000E+00  0.000E+00  0.000E+00  0.000E+00  0.000E+00  0.000E+00  0.000E+00  0.000E+00  0.000E+00  0.000E+00  0.000E+00
  22.000  0.000E+00  0.000E+00  0.000E+00  0.000E+00  0.000E+00  0.000E+00  0.000E+00  0.000E+00  0.000E+00  0.000E+00  0.000E+00  0.000E+00
  22.050  0.000E+00  0.000E+00  0.000E+00  0.000E+00  0.000E+00  0.000E+00  0.000E+00  0.000E+00  0.000E+00  0.000E+00  0.000E+00  0.000E+00
  22.100 -0.750E-07  0.000E+00 -0.124E-07  0.000E+00 -0.167E-07  0.000E+00 -0.167E-07  0.000E+00 -0.124E-07  0.000E+00 -0.167E-07  0.000E+00
  22.150 -0.912E-06  0.000E+00 -0.125E-06  0.000E+00 -0.221E-06  0.000E+00 -0.221E-06  0.000E+00 -0.125E-06  0.000E+00 -0.221E-06  0.000E+00
  22.200 -0.121E-05  0.000E+00 -0.178E-06  0.000E+00 -0.285E-06  0.000E+00 -0.285E-06  0.000E+00 -0.178E-06  0.000E+00 -0.285E-06  0.000E+00
  22.250 -0.106E-05  0.000E+00 -0.200E-06  0.000E+00 -0.219E-06  0.000E+00 -0.219E-06  0.000E+00 -0.200E-06  0.000E+00 -0.219E-06  0.000E+00
  22.300 -0.689E-06 -0.381E-06 -0.156E-06 -0.622E-07 -0.126E-06 -0.854E-07 -0.126E-06 -0.854E-07 -0.156E-06 -0.622E-07 -0.126E-06 -0.854E-07
  22.350  0.170E-06 -0.944E-06 -0.554E-08 -0.114E-06  0.605E-07 -0.239E-06  0.605E-07 -0.239E-06 -0.554E-08 -0.114E-06  0.605E-07 -0.239E-06
  22.400  0.159E-05 -0.998E-06  0.261E-06 -0.154E-06  0.356E-06 -0.230E-06  0.356E-06 -0.230E-06  0.261E-06 -0.154E-06  0.356E-06 -0.230E-06
  22.450  0.351E-05 -0.740E-06  0.548E-06 -0.143E-06  0.806E-06 -0.152E-06  0.806E-06 -0.152E-06  0.548E-06 -0.143E-06  0.806E-06 -0.152E-06
  22.500  0.553E-05 -0.246E-06  0.796E-06 -0.705E-07  0.131E-05 -0.350E-07  0.131E-05 -0.350E-07  0.796E-06 -0.705E-07  0.131E-05 -0.350E-07
  22.550  0.848E-05  0.712E-06  0.120E-05  0.979E-07  0.203E-05  0.172E-06  0.203E-05  0.172E-06  0.120E-05  0.979E-07  0.203E-05  0.172E-06
  22.600  0.124E-04  0.218E-05  0.174E-05  0.355E-06  0.297E-05  0.491E-06  0.297E-05  0.491E-06  0.174E-05  0.355E-06  0.297E-05  0.491E-06
  22.650  0.174E-04  0.382E-05  0.246E-05  0.543E-06  0.417E-05  0.912E-06  0.417E-05  0.912E-06  0.246E-05  0.543E-06  0.417E-05  0.912E-06
  22.700  0.237E-04  0.595E-05  0.337E-05  0.811E-06  0.564E-05  0.144E-05  0.564E-05  0.144E-05  0.337E-05  0.811E-06  0.564E-05  0.144E-05
  22.750  0.312E-04  0.885E-05  0.449E-05  0.119E-05  0.741E-05  0.216E-05  0.741E-05  0.216E-05  0.449E-05  0.119E-05  0.741E-05  0.216E-05
  22.800  0.384E-04  0.126E-04  0.571E-05  0.168E-05  0.899E-05  0.308E-05  0.899E-05  0.308E-05  0.571E-05  0.168E-05  0.899E-05  0.308E-05
  22.850  0.465E-04  0.173E-04  0.697E-05  0.231E-05  0.109E-04  0.422E-05  0.109E-04  0.422E-05  0.697E-05  0.231E-05  0.109E-04  0.422E-05
  22.900  0.560E-04  0.230E-04  0.836E-05  0.311E-05  0.131E-04  0.561E-05  0.131E-04  0.561E-05  0.836E-05  0.311E-05  0.131E-04  0.561E-05
  22.950  0.670E-04  0.293E-04  0.995E-05  0.405E-05  0.157E-04  0.707E-05  0.157E-04  0.707E-05  0.995E-05  0.405E-05  0.157E-04  0.707E-05
  23.000  0.792E-04  0.358E-04  0.118E-04  0.504E-05  0.186E-04  0.857E-05  0.186E-04  0.857E-05  0.118E-04  0.504E-05  0.186E-04  0.857E-05
  23.050  0.929E-04  0.431E-04  0.138E-04  0.608E-05  0.218E-04  0.103E-04  0.218E-04  0.103E-04  0.138E-04  0.608E-05  0.218E-04  0.103E-04
  23.100  0.108E-03  0.516E-04  0.161E-04  0.721E-05  0.253E-04  0.124E-04  0.253E-04  0.124E-04  0.161E-04  0.721E-05  0.253E-04  0.124E-04
  23.150  0.126E-03  0.612E-04  0.189E-04  0.854E-05  0.295E-04  0.147E-04  0.295E-04  0.147E-04  0.189E-04  0.854E-05  0.295E-04  0.147E-04
  23.200  0.147E-03  0.719E-04  0.220E-04  0.100E-04  0.344E-04  0.173E-04  0.344E-04  0.173E-04  0.220E-04  0.100E-04  0.344E-04  0.173E-04
  23.250  0.171E-03  0.839E-04  0.256E-04  0.117E-04  0.399E-04  0.201E-04  0.399E-04  0.201E-04  0.256E-04  0.117E-04  0.399E-04  0.201E-04
  23.300  0.198E-03  0.973E-04  0.297E-04  0.136E-04  0.462E-04  0.234E-04  0.462E-04  0.234E-04  0.297E-04  0.136E-04  0.462E-04  0.234E-04
  23.350  0.228E-03  0.113E-03  0.342E-04  0.158E-04  0.531E-04  0.271E-04  0.531E-04  0.271E-04  0.342E-04  0.158E-04  0.531E-04  0.271E-04
  23.400  0.254E-03  0.131E-03  0.383E-04  0.183E-04  0.593E-04  0.314E-04  0.593E-04  0.314E-04  0.383E-04  0.183E-04  0.593E-04  0.314E-04
  23.450  0.285E-03  0.151E-03  0.431E-04  0.212E-04  0.664E-04  0.363E-04  0.664E-04  0.363E-04  0.431E-04  0.212E-04  0.664E-04  0.363E-04
  23.500  0.319E-03  0.174E-03  0.484E-04  0.245E-04  0.742E-04  0.418E-04  0.742E-04  0.418E-04  0.484E-04  0.245E-04  0.742E-04  0.418E-04
  23.550  0.357E-03  0.199E-03  0.543E-04  0.279E-04  0.829E-04  0.477E-04  0.829E-04  0.477E-04  0.543E-04  0.279E-04  0.829E-04  0.477E-04
  23.600  0.401E-03  0.221E-03  0.611E-04  0.311E-04  0.929E-04  0.530E-04  0.929E-04  0.530E-04  0.611E-04  0.311E-04  0.929E-04  0.530E-04
  23.650  0.446E-03  0.247E-03  0.680E-04  0.348E-04  0.103E-03  0.590E-04  0.103E-03  0.590E-04  0.680E-04  0.348E-04  0.103E-03  0.590E-04
  23.700  0.497E-03  0.275E-03  0.760E-04  0.389E-04  0.115E-03  0.658E-04  0.115E-03  0.658E-04  0.760E-04  0.389E-04  0.115E-03  0.658E-04
  23.750  0.555E-03  0.307E-03  0.849E-04  0.435E-04  0.128E-03  0.732E-04  0.128E-03  0.732E-04  0.849E-04  0.435E-04  0.128E-03  0.732E-04
  23.800  0.618E-03  0.342E-03  0.948E-04  0.486E-04  0.143E-03  0.816E-04  0.143E-03  0.816E-04  0.948E-04  0.486E-04  0.143E-03  0.816E-04
  23.850  0.688E-03  0.379E-03  0.106E-03  0.539E-04  0.159E-03  0.904E-04  0.159E-03  0.904E-04  0.106E-03  0.539E-04  0.159E-03  0.904E-04
  23.900  0.762E-03  0.421E-03  0.118E-03  0.599E-04  0.176E-03  0.100E-03  0.176E-03  0.100E-03  0.118E-03  0.599E-04  0.176E-03  0.100E-03
  23.950  0.847E-03  0.467E-03  0.131E-03  0.666E-04  0.195E-03  0.111E-03  0.195E-03  0.111E-03  0.131E-03  0.666E-04  0.195E-03  0.111E-03
  24.000  0.940E-03  0.518E-03  0.145E-03  0.740E-04  0.217E-03  0.123E-03  0.217E-03  0.123E-03  0.145E-03  0.740E-04  0.217E-03  0.123E-03
  24.050  0.104E-02  0.573E-03  0.160E-03  0.821E-04  0.240E-03  0.136E-03  0.240E-03  0.136E-03  0.160E-03  0.821E-04  0.240E-03  0.136E-03
  24.100  0.115E-02  0.633E-03  0.177E-03  0.909E-04  0.265E-03  0.150E-03  0.265E-03  0.150E-03  0.177E-03  0.909E-04  0.265E-03  0.150E-03
  24.150  0.126E-02  0.699E-03  0.195E-03  0.100E-03  0.292E-03  0.166E-03  0.292E-03  0.166E-03  0.195E-03  0.100E-03  0.292E-03  0.166E-03
  24.200  0.138E-02  0.772E-03  0.215E-03  0.111E-03  0.317E-03  0.184E-03  0.317E-03  0.184E-03  0.215E-03  0.111E-03  0.317E-03  0.184E-03
  24.250  0.152E-02  0.851E-03  0.237E-03  0.122E-03  0.349E-03  0.203E-03  0.349E-03  0.203E-03  0.237E-03  0.122E-03  0.349E-03  0.203E-03
  24.300  0.167E-02  0.933E-03  0.261E-03  0.134E-03  0.384E-03  0.222E-03  0.384E-03  0.222E-03  0.261E-03  0.134E-03  0.384E-03  0.222E-03
  24.350  0.131E-01  0.102E-02  0.592E-02  0.146E-03  0.422E-03  0.243E-03  0.422E-03  0.243E-03  0.592E-02  0.146E-03  0.422E-03  0.243E-03
  24.400  0.189E-01  0.111E-02  0.877E-02  0.160E-03  0.465E-03  0.263E-03  0.465E-03  0.263E-03  0.877E-02  0.160E-03  0.465E-03  0.263E-03
  24.450  0.252E-01  0.121E-02  0.119E-01  0.175E-03  0.511E-03  0.287E-03  0.511E-03  0.287E-03  0.119E-01  0.175E-03  0.511E-03  0.287E-03
  24.500  0.320E-01  0.133E-02  0.152E-01  0.192E-03  0.560E-03  0.314E-03  0.560E-03  0.314E-03  0.152E-01  0.192E-03  0.560E-03  0.314E-03
  24.550  0.338E-01  0.145E-02  0.160E-01  0.210E-03  0.619E-03  0.344E-03  0.619E-03  0.344E-03  0.160E-01  0.210E-03  0.619E-03  0.344E-03
  24.600  0.372E-01  0.159E-02  0.176E-01  0.231E-03  0.686E-03  0.376E-03  0.686E-03  0.376E-03  0.176E-01  0.231E-03  0.686E-03  0.376E-03
  24.650  0.416E-01  0.174E-02  0.196E-01  0.253E-03  0.761E-03  0.411E-03  0.761E-03  0.411E-03  0.196E-01  0.253E-03  0.761E-03  0.411E-03
  24.700  0.460E-01  0.189E-02  0.217E-01  0.275E-03  0.845E-03  0.446E-03  0.845E-03  0.446E-03  0.217E-01  0.275E-03  0.845E-03  0.446E-03
  24.750  0.496E-01  0.207E-02  0.234E-01  0.302E-03  0.933E-03  0.488E-03  0.933E-03  0.488E-03  0.234E-01  0.302E-03  0.933E-03  0.488E-03
  24.800  0.525E-01  0.226E-02  0.247E-01  0.331E-03  0.104E-02  0.534E-03  0.104E-02  0.534E-03  0.247E-01  0.331E-03  0.104E-02  0.534E-03
  24.850  0.553E-01  0.248E-02  0.259E-01  0.363E-03  0.116E-02  0.585E-03  0.116E-02  0.585E-03  0.259E-01  0.363E-03  0.116E-02  0.585E-03
  24.900  0.806E-01  0.272E-02  0.317E-01  0.397E-03  0.576E-02  0.642E-03  0.576E-02  0.642E-03  0.317E-01  0.397E-03  0.576E-02  0.642E-03
  24.950  0.107E+00  0.298E-02  0.378E-01  0.435E-03  0.104E-01  0.704E-03  0.104E-01  0.704E-03  0.378E-01  0.435E-03  0.104E-01  0.704E-03
  25.000  0.130E+00  0.325E-02  0.433E-01  0.476E-03  0.143E-01  0.768E-03  0.143E-01  0.768E-03  0.433E-01  0.476E-03  0.143E-01  0.768E-03
  25.050  0.150E+00  0.358E-02  0.482E-01  0.523E-03  0.178E-01  0.843E-03  0.178E-01  0.843E-03  0.482E-01  0.523E-03  0.178E-01  0.843E-03
  25.100  0.162E+00  0.392E-02  0.517E-01  0.573E-03  0.197E-01  0.926E-03  0.197E-01  0.926E-03  0.517E-01  0.573E-03  0.197E-01  0.926E-03
  25.150  0.178E+00  0.429E-02  0.554E-01  0.629E-03  0.224E-01  0.101E-02  0.224E-01  0.101E-02  0.554E-01  0.629E-03  0.224E-01  0.101E-02
  25.200  0.196E+00  0.471E-02  0.597E-01  0.692E-03  0.255E-01  0.111E-02  0.255E-01  0.111E-02  0.597E-01  0.692E-03  0.255E-01  0.111E-02
  25.250  0.210E+00  0.549E-02  0.632E-01  0.917E-03  0.277E-01  0.122E-02  0.277E-01  0.122E-02  0.632E-01  0.917E-03  0.277E-01  0.122E-02
  25.300  0.226E+00  0.175E-01  0.675E-01  0.678E-02  0.304E-01  0.133E-02  0.304E-01  0.133E-02  0.675E-01  0.678E-02  0.304E-01  0.133E-02
  25.350  0.247E+00  0.243E-01  0.724E-01  0.994E-02  0.342E-01  0.147E-02  0.342E-01  0.147E-02  0.724E-01  0.994E-02  0.342E-01  0.147E-02
  25.400  0.282E+00  0.317E-01  0.797E-01  0.134E-01  0.409E-01  0.164E-02  0.409E-01  0.164E-02  0.797E-01  0.134E-01  0.409E-01  0.164E-02
  25.450  0.286E+00  0.368E-01  0.818E-01  0.157E-01  0.408E-01  0.183E-02  0.408E-01  0.183E-02  0.818E-01  0.157E-01  0.408E-01  0.183E-02
  25.500  0.293E+00  0.473E-01  0.845E-01  0.182E-01  0.412E-01  0.366E-02  0.412E-01  0.366E-02  0.845E-01  0.182E-01  0.412E-01  0.366E-02
  25.550  0.302E+00  0.846E-01  0.880E-01  0.259E-01  0.420E-01  0.109E-01  0.420E-01  0.109E-01  0.880E-01  0.259E-01  0.420E-01  0.109E-01
  25.600  0.308E+00  0.110E+00  0.904E-01  0.316E-01  0.424E-01  0.154E-01  0.424E-01  0.154E-01  0.904E-01  0.316E-01  0.424E-01  0.154E-01
  25.650  0.319E+00  0.130E+00  0.946E-01  0.366E-01  0.432E-01  0.191E-01  0.432E-01  0.191E-01  0.946E-01  0.366E-01  0.432E-01  0.191E-01
  25.700  0.328E+00  0.147E+00  0.983E-01  0.405E-01  0.438E-01  0.221E-01  0.438E-01  0.221E-01  0.983E-01  0.405E-01  0.438E-01  0.221E-01
  25.750  0.340E+00  0.165E+00  0.103E+00  0.442E-01  0.448E-01  0.254E-01  0.448E-01  0.254E-01  0.103E+00  0.442E-01  0.448E-01  0.254E-01
  25.800  0.354E+00  0.185E+00  0.108E+00  0.484E-01  0.458E-01  0.293E-01  0.458E-01  0.293E-01  0.108E+00  0.484E-01  0.458E-01  0.293E-01
  25.850  0.375E+00  0.207E+00  0.117E+00  0.529E-01  0.473E-01  0.339E-01  0.473E-01  0.339E-01  0.117E+00  0.529E-01  0.473E-01  0.339E-01
  25.900  0.414E+00  0.227E+00  0.132E+00  0.572E-01  0.499E-01  0.375E-01  0.499E-01  0.375E-01  0.132E+00  0.572E-01  0.499E-01  0.375E-01
  25.950  0.422E+00  0.236E+00  0.135E+00  0.600E-01  0.505E-01  0.385E-01  0.505E-01  0.385E-01  0.135E+00  0.600E-01  0.505E-01  0.385E-01
  26.000  0.418E+00  0.241E+00  0.133E+00  0.621E-01  0.504E-01  0.390E-01  0.504E-01  0.390E-01  0.133E+00  0.621E-01  0.504E-01  0.390E-01
  26.050  0.414E+00  0.245E+00  0.132E+00  0.640E-01  0.502E-01  0.391E-01  0.502E-01  0.391E-01  0.132E+00  0.640E-01  0.502E-01  0.391E-01
  26.100  0.409E+00  0.249E+00  0.129E+00  0.656E-01  0.502E-01  0.394E-01  0.502E-01  0.394E-01  0.129E+00  0.656E-01  0.502E-01  0.394E-01
  26.150  0.408E+00  0.254E+00  0.128E+00  0.675E-01  0.505E-01  0.397E-01  0.505E-01  0.397E-01  0.128E+00  0.675E-01  0.505E-01  0.397E-01
  26.200  0.405E+00  0.260E+00  0.126E+00  0.695E-01  0.508E-01  0.402E-01  0.508E-01  0.402E-01  0.126E+00  0.695E-01  0.508E-01  0.402E-01
  26.250  0.403E+00  0.266E+00  0.125E+00  0.719E-01  0.513E-01  0.409E-01  0.513E-01  0.409E-01  0.125E+00  0.719E-01  0.513E-01  0.409E-01
  26.300  0.400E+00  0.273E+00  0.123E+00  0.744E-01  0.517E-01  0.415E-01  0.517E-01  0.415E-01  0.123E+00  0.744E-01  0.517E-01  0.415E-01
  26.350  0.397E+00  0.281E+00  0.120E+00  0.772E-01  0.523E-01  0.423E-01  0.523E-01  0.423E-01  0.120E+00  0.772E-01  0.523E-01  0.423E-01
  26.400  0.399E+00  0.288E+00  0.119E+00  0.799E-01  0.535E-01  0.428E-01  0.535E-01  0.428E-01  0.119E+00  0.799E-01  0.535E-01  0.428E-01
  26.450  0.399E+00  0.296E+00  0.118E+00  0.828E-01  0.545E-01  0.435E-01  0.545E-01  0.435E-01  0.118E+00  0.828E-01  0.545E-01  0.435E-01
  26.500  0.400E+00  0.305E+00  0.116E+00  0.862E-01  0.556E-01  0.443E-01  0.556E-01  0.443E-01  0.116E+00  0.862E-01  0.556E-01  0.443E-01
  26.550  0.401E+00  0.313E+00  0.115E+00  0.888E-01  0.570E-01  0.450E-01  0.570E-01  0.450E-01  0.115E+00  0.888E-01  0.570E-01  0.450E-01
  26.600  0.408E+00  0.326E+00  0.114E+00  0.937E-01  0.596E-01  0.461E-01  0.596E-01  0.461E-01  0.114E+00  0.937E-01  0.596E-01  0.461E-01
  26.650  0.416E+00  0.339E+00  0.114E+00  0.985E-01  0.628E-01  0.474E-01  0.628E-01  0.474E-01  0.114E+00  0.985E-01  0.628E-01  0.474E-01
  26.700  0.427E+00  0.358E+00  0.113E+00  0.105E+00  0.669E-01  0.490E-01  0.669E-01  0.490E-01  0.113E+00  0.105E+00  0.669E-01  0.490E-01
  26.750  0.437E+00  0.391E+00  0.113E+00  0.118E+00  0.704E-01  0.513E-01  0.704E-01  0.513E-01  0.113E+00  0.118E+00  0.704E-01  0.513E-01
  26.800  0.446E+00  0.408E+00  0.113E+00  0.125E+00  0.737E-01  0.528E-01  0.737E-01  0.528E-01  0.113E+00  0.125E+00  0.737E-01  0.528E-01
  26.850  0.453E+00  0.407E+00  0.113E+00  0.123E+00  0.754E-01  0.536E-01  0.754E-01  0.536E-01  0.113E+00  0.123E+00  0.754E-01  0.536E-01
  26.900  0.430E+00  0.406E+00  0.919E-01  0.122E+00  0.819E-01  0.543E-01  0.819E-01  0.543E-01  0.919E-01  0.122E+00  0.819E-01  0.543E-01
  26.950  0.400E+00  0.403E+00  0.728E-01  0.119E+00  0.849E-01  0.548E-01  0.849E-01  0.548E-01  0.728E-01  0.119E+00  0.849E-01  0.548E-01
  27.000  0.308E+00  0.404E+00  0.616E-01  0.118E+00  0.615E-01  0.558E-01  0.615E-01  0.558E-01  0.616E-01  0.118E+00  0.615E-01  0.558E-01
  27.050  0.255E+00  0.401E+00  0.542E-01  0.116E+00  0.490E-01  0.565E-01  0.490E-01  0.565E-01  0.542E-01  0.116E+00  0.490E-01  0.565E-01
  27.100  0.227E+00  0.404E+00  0.501E-01  0.115E+00  0.422E-01  0.582E-01  0.422E-01  0.582E-01  0.501E-01  0.115E+00  0.422E-01  0.582E-01
  27.150  0.208E+00  0.407E+00  0.479E-01  0.113E+00  0.373E-01  0.600E-01  0.373E-01  0.600E-01  0.479E-01  0.113E+00  0.373E-01  0.600E-01
  27.200  0.194E+00  0.408E+00  0.468E-01  0.111E+00  0.334E-01  0.620E-01  0.334E-01  0.620E-01  0.468E-01  0.111E+00  0.334E-01  0.620E-01
  27.250  0.184E+00  0.413E+00  0.466E-01  0.109E+00  0.304E-01  0.648E-01  0.304E-01  0.648E-01  0.466E-01  0.109E+00  0.304E-01  0.648E-01
  27.300  0.178E+00  0.424E+00  0.464E-01  0.108E+00  0.284E-01  0.691E-01  0.284E-01  0.691E-01  0.464E-01  0.108E+00  0.284E-01  0.691E-01
  27.350  0.175E+00  0.435E+00  0.467E-01  0.108E+00  0.272E-01  0.728E-01  0.272E-01  0.728E-01  0.467E-01  0.108E+00  0.272E-01  0.728E-01
  27.400  0.173E+00  0.441E+00  0.476E-01  0.106E+00  0.259E-01  0.760E-01  0.259E-01  0.760E-01  0.476E-01  0.106E+00  0.259E-01  0.760E-01
  27.450  0.247E+00  0.453E+00  0.499E-01  0.106E+00  0.490E-01  0.805E-01  0.490E-01  0.805E-01  0.499E-01  0.106E+00  0.490E-01  0.805E-01
  27.500  0.496E+00  0.469E+00  0.497E-01  0.105E+00  0.132E+00  0.865E-01  0.132E+00  0.865E-01  0.497E-01  0.105E+00  0.132E+00  0.865E-01
  27.550  0.640E+00  0.451E+00  0.550E-01  0.114E+00  0.177E+00  0.741E-01  0.177E+00  0.741E-01  0.550E-01  0.114E+00  0.177E+00  0.741E-01
  27.600  0.647E+00  0.348E+00  0.602E-01  0.812E-01  0.176E+00  0.619E-01  0.176E+00  0.619E-01  0.602E-01  0.812E-01  0.176E+00  0.619E-01
  27.650  0.711E+00  0.303E+00  0.687E-01  0.701E-01  0.191E+00  0.543E-01  0.191E+00  0.543E-01  0.687E-01  0.701E-01  0.191E+00  0.543E-01
  27.700  0.752E+00  0.240E+00  0.774E-01  0.561E-01  0.199E+00  0.427E-01  0.199E+00  0.427E-01  0.774E-01  0.561E-01  0.199E+00  0.427E-01
  27.750  0.847E+00  0.214E+00  0.950E-01  0.513E-01  0.219E+00  0.371E-01  0.219E+00  0.371E-01  0.950E-01  0.513E-01  0.219E+00  0.371E-01
  27.800  0.100E+01  0.194E+00  0.124E+00  0.483E-01  0.251E+00  0.326E-01  0.251E+00  0.326E-01  0.124E+00  0.483E-01  0.251E+00  0.326E-01
  27.850  0.839E+00  0.184E+00  0.104E+00  0.464E-01  0.210E+00  0.304E-01  0.210E+00  0.304E-01  0.104E+00  0.464E-01  0.210E+00  0.304E-01
  27.900  0.736E+00  0.176E+00  0.923E-01  0.452E-01  0.184E+00  0.285E-01  0.184E+00  0.285E-01  0.923E-01  0.452E-01  0.184E+00  0.285E-01
  27.950  0.696E+00  0.169E+00  0.884E-01  0.438E-01  0.173E+00  0.271E-01  0.173E+00  0.271E-01  0.884E-01  0.438E-01  0.173E+00  0.271E-01
  28.000  0.640E+00  0.162E+00  0.824E-01  0.428E-01  0.158E+00  0.257E-01  0.158E+00  0.257E-01  0.824E-01  0.428E-01  0.158E+00  0.257E-01
  28.050  0.575E+00  0.186E+00  0.742E-01  0.416E-01  0.142E+00  0.344E-01  0.142E+00  0.344E-01  0.742E-01  0.416E-01  0.142E+00  0.344E-01
  28.100  0.530E+00  0.375E+00  0.686E-01  0.407E-01  0.131E+00  0.978E-01  0.131E+00  0.978E-01  0.686E-01  0.407E-01  0.131E+00  0.978E-01
  28.150  0.491E+00  0.559E+00  0.639E-01  0.420E-01  0.121E+00  0.158E+00  0.121E+00  0.158E+00  0.639E-01  0.420E-01  0.121E+00  0.158E+00
  28.200  0.465E+00  0.547E+00  0.613E-01  0.436E-01  0.114E+00  0.153E+00  0.114E+00  0.153E+00  0.613E-01  0.436E-01  0.114E+00  0.153E+00
  28.250  0.439E+00  0.580E+00  0.585E-01  0.469E-01  0.107E+00  0.162E+00  0.107E+00  0.162E+00  0.585E-01  0.469E-01  0.107E+00  0.162E+00
  28.300  0.422E+00  0.606E+00  0.566E-01  0.511E-01  0.103E+00  0.168E+00  0.103E+00  0.168E+00  0.566E-01  0.511E-01  0.103E+00  0.168E+00
  28.350  0.407E+00  0.621E+00  0.548E-01  0.567E-01  0.992E-01  0.169E+00  0.992E-01  0.169E+00  0.548E-01  0.567E-01  0.992E-01  0.169E+00
  28.400  0.405E+00  0.654E+00  0.543E-01  0.643E-01  0.990E-01  0.175E+00  0.990E-01  0.175E+00  0.543E-01  0.643E-01  0.990E-01  0.175E+00
  28.450  0.380E+00  0.702E+00  0.514E-01  0.768E-01  0.924E-01  0.183E+00  0.924E-01  0.183E+00  0.514E-01  0.768E-01  0.924E-01  0.183E+00
  28.500  0.380E+00  0.826E+00  0.501E-01  0.101E+00  0.931E-01  0.208E+00  0.931E-01  0.208E+00  0.501E-01  0.101E+00  0.931E-01  0.208E+00
  28.550  0.378E+00  0.812E+00  0.498E-01  0.104E+00  0.927E-01  0.202E+00  0.927E-01  0.202E+00  0.498E-01  0.104E+00  0.927E-01  0.202E+00
  28.600  0.380E+00  0.692E+00  0.497E-01  0.895E-01  0.935E-01  0.171E+00  0.935E-01  0.171E+00  0.497E-01  0.895E-01  0.935E-01  0.171E+00
  28.650  0.379E+00  0.654E+00  0.492E-01  0.849E-01  0.934E-01  0.161E+00  0.934E-01  0.161E+00  0.492E-01  0.849E-01  0.934E-01  0.161E+00
  28.700  0.364E+00  0.615E+00  0.454E-01  0.802E-01  0.911E-01  0.151E+00  0.911E-01  0.151E+00  0.454E-01  0.802E-01  0.911E-01  0.151E+00
  28.750  0.334E+00  0.566E+00  0.412E-01  0.733E-01  0.839E-01  0.140E+00  0.839E-01  0.140E+00  0.412E-01  0.733E-01  0.839E-01  0.140E+00
  28.800  0.306E+00  0.518E+00  0.349E-01  0.667E-01  0.786E-01  0.128E+00  0.786E-01  0.128E+00  0.349E-01  0.667E-01  0.786E-01  0.128E+00
  28.850  0.301E+00  0.485E+00  0.315E-01  0.622E-01  0.792E-01  0.120E+00  0.792E-01  0.120E+00  0.315E-01  0.622E-01  0.792E-01  0.120E+00
  28.900  0.311E+00  0.450E+00  0.311E-01  0.571E-01  0.830E-01  0.112E+00  0.830E-01  0.112E+00  0.311E-01  0.571E-01  0.830E-01  0.112E+00
  28.950  0.330E+00  0.434E+00  0.316E-01  0.557E-01  0.889E-01  0.107E+00  0.889E-01  0.107E+00  0.316E-01  0.557E-01  0.889E-01  0.107E+00
  29.000  0.345E+00  0.419E+00  0.327E-01  0.536E-01  0.930E-01  0.104E+00  0.930E-01  0.104E+00  0.327E-01  0.536E-01  0.930E-01  0.104E+00
  29.050  0.359E+00  0.404E+00  0.342E-01  0.512E-01  0.967E-01  0.100E+00  0.967E-01  0.100E+00  0.342E-01  0.512E-01  0.967E-01  0.100E+00
  29.100  0.378E+00  0.393E+00  0.367E-01  0.491E-01  0.101E+00  0.982E-01  0.101E+00  0.982E-01  0.367E-01  0.491E-01  0.101E+00  0.982E-01
  29.150  0.395E+00  0.386E+00  0.384E-01  0.477E-01  0.106E+00  0.970E-01  0.106E+00  0.970E-01  0.384E-01  0.477E-01  0.106E+00  0.970E-01
  29.200  0.424E+00  0.384E+00  0.420E-01  0.468E-01  0.113E+00  0.969E-01  0.113E+00  0.969E-01  0.420E-01  0.468E-01  0.113E+00  0.969E-01
  29.250  0.477E+00  0.384E+00  0.518E-01  0.461E-01  0.125E+00  0.972E-01  0.125E+00  0.972E-01  0.518E-01  0.461E-01  0.125E+00  0.972E-01
  29.300  0.547E+00  0.387E+00  0.664E-01  0.457E-01  0.138E+00  0.983E-01  0.138E+00  0.983E-01  0.664E-01  0.457E-01  0.138E+00  0.983E-01
  29.350  0.595E+00  0.387E+00  0.739E-01  0.451E-01  0.149E+00  0.988E-01  0.149E+00  0.988E-01  0.739E-01  0.451E-01  0.149E+00  0.988E-01
  29.400  0.660E+00  0.381E+00  0.811E-01  0.440E-01  0.166E+00  0.978E-01  0.166E+00  0.978E-01  0.811E-01  0.440E-01  0.166E+00  0.978E-01
  29.450  0.755E+00  0.382E+00  0.929E-01  0.441E-01  0.190E+00  0.980E-01  0.190E+00  0.980E-01  0.929E-01  0.441E-01  0.190E+00  0.980E-01
  29.500  0.798E+00  0.384E+00  0.974E-01  0.442E-01  0.201E+00  0.985E-01  0.201E+00  0.985E-01  0.974E-01  0.442E-01  0.201E+00  0.985E-01
  29.550  0.717E+00  0.360E+00  0.863E-01  0.392E-01  0.182E+00  0.940E-01  0.182E+00  0.940E-01  0.863E-01  0.392E-01  0.182E+00  0.940E-01
  29.600  0.652E+00  0.355E+00  0.755E-01  0.365E-01  0.167E+00  0.941E-01  0.167E+00  0.941E-01  0.755E-01  0.365E-01  0.167E+00  0.941E-01
  29.650  0.625E+00  0.352E+00  0.693E-01  0.348E-01  0.162E+00  0.941E-01  0.162E+00  0.941E-01  0.693E-01  0.348E-01  0.162E+00  0.941E-01
  29.700  0.580E+00  0.355E+00  0.608E-01  0.337E-01  0.153E+00  0.957E-01  0.153E+00  0.957E-01  0.608E-01  0.337E-01  0.153E+00  0.957E-01
  29.750  0.532E+00  0.364E+00  0.524E-01  0.339E-01  0.143E+00  0.988E-01  0.143E+00  0.988E-01  0.524E-01  0.339E-01  0.143E+00  0.988E-01
  29.800  0.502E+00  0.380E+00  0.468E-01  0.350E-01  0.136E+00  0.103E+00  0.136E+00  0.103E+00  0.468E-01  0.350E-01  0.136E+00  0.103E+00
  29.850  0.483E+00  0.395E+00  0.427E-01  0.363E-01  0.133E+00  0.108E+00  0.133E+00  0.108E+00  0.427E-01  0.363E-01  0.133E+00  0.108E+00
  29.900  0.441E+00  0.415E+00  0.388E-01  0.380E-01  0.121E+00  0.113E+00  0.121E+00  0.113E+00  0.388E-01  0.380E-01  0.121E+00  0.113E+00
  29.950  0.295E+00  0.442E+00  0.363E-01  0.407E-01  0.740E-01  0.120E+00  0.740E-01  0.120E+00  0.363E-01  0.407E-01  0.740E-01  0.120E+00
  30.000  0.248E+00  0.477E+00  0.338E-01  0.448E-01  0.603E-01  0.129E+00  0.603E-01  0.129E+00  0.338E-01  0.448E-01  0.603E-01  0.129E+00
  30.050  0.235E+00  0.522E+00  0.320E-01  0.503E-01  0.569E-01  0.140E+00  0.569E-01  0.140E+00  0.320E-01  0.503E-01  0.569E-01  0.140E+00
  30.100  0.224E+00  0.594E+00  0.304E-01  0.621E-01  0.545E-01  0.157E+00  0.545E-01  0.157E+00  0.304E-01  0.621E-01  0.545E-01  0.157E+00
  30.150  0.221E+00  0.671E+00  0.288E-01  0.766E-01  0.543E-01  0.173E+00  0.543E-01  0.173E+00  0.288E-01  0.766E-01  0.543E-01  0.173E+00
  30.200  0.205E+00  0.734E+00  0.274E-01  0.864E-01  0.499E-01  0.187E+00  0.499E-01  0.187E+00  0.274E-01  0.864E-01  0.499E-01  0.187E+00
  30.250  0.198E+00  0.687E+00  0.262E-01  0.789E-01  0.486E-01  0.176E+00  0.486E-01  0.176E+00  0.262E-01  0.789E-01  0.486E-01  0.176E+00
  30.300  0.193E+00  0.645E+00  0.252E-01  0.711E-01  0.474E-01  0.168E+00  0.474E-01  0.168E+00  0.252E-01  0.711E-01  0.474E-01  0.168E+00
  30.350  0.188E+00  0.625E+00  0.245E-01  0.657E-01  0.464E-01  0.165E+00  0.464E-01  0.165E+00  0.245E-01  0.657E-01  0.464E-01  0.165E+00
  30.400  0.184E+00  0.643E+00  0.238E-01  0.635E-01  0.454E-01  0.172E+00  0.454E-01  0.172E+00  0.238E-01  0.635E-01  0.454E-01  0.172E+00
  30.450  0.181E+00  0.556E+00  0.233E-01  0.513E-01  0.447E-01  0.151E+00  0.447E-01  0.151E+00  0.233E-01  0.513E-01  0.447E-01  0.151E+00
  30.500  0.185E+00  0.527E+00  0.230E-01  0.452E-01  0.463E-01  0.145E+00  0.463E-01  0.145E+00  0.230E-01  0.452E-01  0.463E-01  0.145E+00
  30.550  0.182E+00  0.496E+00  0.228E-01  0.402E-01  0.454E-01  0.138E+00  0.454E-01  0.138E+00  0.228E-01  0.402E-01  0.454E-01  0.138E+00
  30.600  0.180E+00  0.461E+00  0.227E-01  0.355E-01  0.450E-01  0.130E+00  0.450E-01  0.130E+00  0.227E-01  0.355E-01  0.450E-01  0.130E+00
  30.650  0.178E+00  0.438E+00  0.225E-01  0.319E-01  0.445E-01  0.125E+00  0.445E-01  0.125E+00  0.225E-01  0.319E-01  0.445E-01  0.125E+00
  30.700  0.179E+00  0.269E+00  0.228E-01  0.297E-01  0.445E-01  0.699E-01  0.445E-01  0.699E-01  0.228E-01  0.297E-01  0.445E-01  0.699E-01
  30.750  0.180E+00  0.229E+00  0.233E-01  0.274E-01  0.444E-01  0.580E-01  0.444E-01  0.580E-01  0.233E-01  0.274E-01  0.444E-01  0.580E-01
  30.800  0.182E+00  0.214E+00  0.242E-01  0.258E-01  0.445E-01  0.542E-01  0.445E-01  0.542E-01  0.242E-01  0.258E-01  0.445E-01  0.542E-01
  30.850  0.185E+00  0.205E+00  0.253E-01  0.245E-01  0.448E-01  0.520E-01  0.448E-01  0.520E-01  0.253E-01  0.245E-01  0.448E-01  0.520E-01
  30.900  0.186E+00  0.196E+00  0.255E-01  0.235E-01  0.450E-01  0.495E-01  0.450E-01  0.495E-01  0.255E-01  0.235E-01  0.450E-01  0.495E-01
  30.950  0.189E+00  0.187E+00  0.260E-01  0.225E-01  0.456E-01  0.474E-01  0.456E-01  0.474E-01  0.260E-01  0.225E-01  0.456E-01  0.474E-01
  31.000  0.191E+00  0.181E+00  0.260E-01  0.216E-01  0.462E-01  0.461E-01  0.462E-01  0.461E-01  0.260E-01  0.216E-01  0.462E-01  0.461E-01
  31.050  0.195E+00  0.175E+00  0.263E-01  0.206E-01  0.475E-01  0.446E-01  0.475E-01  0.446E-01  0.263E-01  0.206E-01  0.475E-01  0.446E-01
  31.100  0.200E+00  0.170E+00  0.271E-01  0.198E-01  0.488E-01  0.433E-01  0.488E-01  0.433E-01  0.271E-01  0.198E-01  0.488E-01  0.433E-01
  31.150  0.206E+00  0.164E+00  0.281E-01  0.190E-01  0.501E-01  0.419E-01  0.501E-01  0.419E-01  0.281E-01  0.190E-01  0.501E-01  0.419E-01
  31.200  0.210E+00  0.161E+00  0.290E-01  0.183E-01  0.505E-01  0.416E-01  0.505E-01  0.416E-01  0.290E-01  0.183E-01  0.505E-01  0.416E-01
  31.250  0.215E+00  0.161E+00  0.303E-01  0.178E-01  0.515E-01  0.420E-01  0.515E-01  0.420E-01  0.303E-01  0.178E-01  0.515E-01  0.420E-01
  31.300  0.221E+00  0.161E+00  0.316E-01  0.182E-01  0.525E-01  0.416E-01  0.525E-01  0.416E-01  0.316E-01  0.182E-01  0.525E-01  0.416E-01
  31.350  0.227E+00  0.159E+00  0.329E-01  0.182E-01  0.536E-01  0.409E-01  0.536E-01  0.409E-01  0.329E-01  0.182E-01  0.536E-01  0.409E-01
  31.400  0.235E+00  0.157E+00  0.347E-01  0.178E-01  0.551E-01  0.405E-01  0.551E-01  0.405E-01  0.347E-01  0.178E-01  0.551E-01  0.405E-01
  31.450  0.245E+00  0.155E+00  0.370E-01  0.176E-01  0.570E-01  0.399E-01  0.570E-01  0.399E-01  0.370E-01  0.176E-01  0.570E-01  0.399E-01
  31.500  0.257E+00  0.155E+00  0.396E-01  0.176E-01  0.592E-01  0.399E-01  0.592E-01  0.399E-01  0.396E-01  0.176E-01  0.592E-01  0.399E-01
  31.550  0.270E+00  0.155E+00  0.427E-01  0.176E-01  0.615E-01  0.401E-01  0.615E-01  0.401E-01  0.427E-01  0.176E-01  0.615E-01  0.401E-01
  31.600  0.284E+00  0.156E+00  0.460E-01  0.175E-01  0.641E-01  0.403E-01  0.641E-01  0.403E-01  0.460E-01  0.175E-01  0.641E-01  0.403E-01
  31.650  0.300E+00  0.156E+00  0.491E-01  0.175E-01  0.671E-01  0.404E-01  0.671E-01  0.404E-01  0.491E-01  0.175E-01  0.671E-01  0.404E-01
  31.700  0.317E+00  0.157E+00  0.530E-01  0.175E-01  0.704E-01  0.408E-01  0.704E-01  0.408E-01  0.530E-01  0.175E-01  0.704E-01  0.408E-01
  31.750  0.337E+00  0.160E+00  0.578E-01  0.175E-01  0.738E-01  0.415E-01  0.738E-01  0.415E-01  0.578E-01  0.175E-01  0.738E-01  0.415E-01
  31.800  0.363E+00  0.164E+00  0.638E-01  0.177E-01  0.785E-01  0.428E-01  0.785E-01  0.428E-01  0.638E-01  0.177E-01  0.785E-01  0.428E-01
  31.850  0.408E+00  0.166E+00  0.723E-01  0.182E-01  0.879E-01  0.430E-01  0.879E-01  0.430E-01  0.723E-01  0.182E-01  0.879E-01  0.430E-01
  31.900  0.501E+00  0.165E+00  0.891E-01  0.183E-01  0.107E+00  0.427E-01  0.107E+00  0.427E-01  0.891E-01  0.183E-01  0.107E+00  0.427E-01
  31.950  0.509E+00  0.167E+00  0.946E-01  0.186E-01  0.107E+00  0.431E-01  0.107E+00  0.431E-01  0.946E-01  0.186E-01  0.107E+00  0.431E-01
  32.000  0.523E+00  0.168E+00  0.101E+00  0.188E-01  0.107E+00  0.435E-01  0.107E+00  0.435E-01  0.101E+00  0.188E-01  0.107E+00  0.435E-01
  32.050  0.541E+00  0.170E+00  0.109E+00  0.192E-01  0.108E+00  0.439E-01  0.108E+00  0.439E-01  0.109E+00  0.192E-01  0.108E+00  0.439E-01
  32.100  0.565E+00  0.174E+00  0.118E+00  0.200E-01  0.109E+00  0.447E-01  0.109E+00  0.447E-01  0.118E+00  0.200E-01  0.109E+00  0.447E-01
  32.150  0.590E+00  0.179E+00  0.130E+00  0.213E-01  0.110E+00  0.456E-01  0.110E+00  0.456E-01  0.130E+00  0.213E-01  0.110E+00  0.456E-01
  32.200  0.622E+00  0.186E+00  0.143E+00  0.226E-01  0.112E+00  0.468E-01  0.112E+00  0.468E-01  0.143E+00  0.226E-01  0.112E+00  0.468E-01
  32.250  0.644E+00  0.191E+00  0.153E+00  0.236E-01  0.113E+00  0.480E-01  0.113E+00  0.480E-01  0.153E+00  0.236E-01  0.113E+00  0.480E-01
  32.300  0.652E+00  0.197E+00  0.158E+00  0.249E-01  0.112E+00  0.492E-01  0.112E+00  0.492E-01  0.158E+00  0.249E-01  0.112E+00  0.492E-01
  32.350  0.684E+00  0.206E+00  0.172E+00  0.264E-01  0.113E+00  0.510E-01  0.113E+00  0.510E-01  0.172E+00  0.264E-01  0.113E+00  0.510E-01
  32.400  0.704E+00  0.214E+00  0.178E+00  0.280E-01  0.116E+00  0.526E-01  0.116E+00  0.526E-01  0.178E+00  0.280E-01  0.116E+00  0.526E-01
  32.450  0.703E+00  0.221E+00  0.177E+00  0.296E-01  0.117E+00  0.541E-01  0.117E+00  0.541E-01  0.177E+00  0.296E-01  0.117E+00  0.541E-01
  32.500  0.704E+00  0.234E+00  0.175E+00  0.318E-01  0.118E+00  0.568E-01  0.118E+00  0.568E-01  0.175E+00  0.318E-01  0.118E+00  0.568E-01
  32.550  0.725E+00  0.244E+00  0.182E+00  0.343E-01  0.120E+00  0.586E-01  0.120E+00  0.586E-01  0.182E+00  0.343E-01  0.120E+00  0.586E-01
  32.600  0.717E+00  0.252E+00  0.176E+00  0.366E-01  0.122E+00  0.597E-01  0.122E+00  0.597E-01  0.176E+00  0.366E-01  0.122E+00  0.597E-01
  32.650  0.725E+00  0.264E+00  0.177E+00  0.393E-01  0.124E+00  0.618E-01  0.124E+00  0.618E-01  0.177E+00  0.393E-01  0.124E+00  0.618E-01
  32.700  0.755E+00  0.279E+00  0.188E+00  0.426E-01  0.126E+00  0.647E-01  0.126E+00  0.647E-01  0.188E+00  0.426E-01  0.126E+00  0.647E-01
  32.750  0.853E+00  0.305E+00  0.233E+00  0.474E-01  0.129E+00  0.700E-01  0.129E+00  0.700E-01  0.233E+00  0.474E-01  0.129E+00  0.700E-01
  32.800  0.930E+00  0.345E+00  0.268E+00  0.548E-01  0.131E+00  0.785E-01  0.131E+00  0.785E-01  0.268E+00  0.548E-01  0.131E+00  0.785E-01
  32.850  0.984E+00  0.380E+00  0.297E+00  0.621E-01  0.130E+00  0.852E-01  0.130E+00  0.852E-01  0.297E+00  0.621E-01  0.130E+00  0.852E-01
  32.900  0.972E+00  0.395E+00  0.296E+00  0.664E-01  0.126E+00  0.873E-01  0.126E+00  0.873E-01  0.296E+00  0.664E-01  0.126E+00  0.873E-01
  32.950  0.958E+00  0.398E+00  0.295E+00  0.685E-01  0.123E+00  0.871E-01  0.123E+00  0.871E-01  0.295E+00  0.685E-01  0.123E+00  0.871E-01
  33.000  0.994E+00  0.407E+00  0.312E+00  0.718E-01  0.123E+00  0.877E-01  0.123E+00  0.877E-01  0.312E+00  0.718E-01  0.123E+00  0.877E-01
  33.050  0.980E+00  0.416E+00  0.322E+00  0.754E-01  0.112E+00  0.884E-01  0.112E+00  0.884E-01  0.322E+00  0.754E-01  0.112E+00  0.884E-01
  33.100  0.923E+00  0.426E+00  0.314E+00  0.791E-01  0.985E-01  0.894E-01  0.985E-01  0.894E-01  0.314E+00  0.791E-01  0.985E-01  0.894E-01
  33.150  0.960E+00  0.431E+00  0.345E+00  0.827E-01  0.903E-01  0.886E-01  0.903E-01  0.886E-01  0.345E+00  0.827E-01  0.903E-01  0.886E-01
  33.200  0.932E+00  0.446E+00  0.339E+00  0.876E-01  0.844E-01  0.902E-01  0.844E-01  0.902E-01  0.339E+00  0.876E-01  0.844E-01  0.902E-01
  33.250  0.935E+00  0.457E+00  0.349E+00  0.916E-01  0.790E-01  0.911E-01  0.790E-01  0.911E-01  0.349E+00  0.916E-01  0.790E-01  0.911E-01
  33.300  0.982E+00  0.469E+00  0.377E+00  0.957E-01  0.760E-01  0.924E-01  0.760E-01  0.924E-01  0.377E+00  0.957E-01  0.760E-01  0.924E-01
  33.350  0.109E+01  0.485E+00  0.439E+00  0.101E+00  0.725E-01  0.945E-01  0.725E-01  0.945E-01  0.439E+00  0.101E+00  0.725E-01  0.945E-01
  33.400  0.202E+01  0.503E+00  0.889E+00  0.107E+00  0.797E-01  0.962E-01  0.797E-01  0.962E-01  0.889E+00  0.107E+00  0.797E-01  0.962E-01
  33.450  0.791E+00  0.524E+00  0.282E+00  0.115E+00  0.758E-01  0.981E-01  0.758E-01  0.981E-01  0.282E+00  0.115E+00  0.758E-01  0.981E-01
  33.500  0.663E+00  0.546E+00  0.217E+00  0.124E+00  0.760E-01  0.997E-01  0.760E-01  0.997E-01  0.217E+00  0.124E+00  0.760E-01  0.997E-01
  33.550  0.604E+00  0.577E+00  0.186E+00  0.134E+00  0.776E-01  0.103E+00  0.776E-01  0.103E+00  0.186E+00  0.134E+00  0.776E-01  0.103E+00
  33.600  0.574E+00  0.621E+00  0.166E+00  0.152E+00  0.806E-01  0.106E+00  0.806E-01  0.106E+00  0.166E+00  0.152E+00  0.806E-01  0.106E+00
  33.650  0.536E+00  0.643E+00  0.146E+00  0.164E+00  0.817E-01  0.105E+00  0.817E-01  0.105E+00  0.146E+00  0.164E+00  0.817E-01  0.105E+00
  33.700  0.511E+00  0.632E+00  0.130E+00  0.162E+00  0.837E-01  0.103E+00  0.837E-01  0.103E+00  0.130E+00  0.162E+00  0.837E-01  0.103E+00
  33.750  0.491E+00  0.631E+00  0.117E+00  0.163E+00  0.855E-01  0.101E+00  0.855E-01  0.101E+00  0.117E+00  0.163E+00  0.855E-01  0.101E+00
  33.800  0.471E+00  0.647E+00  0.106E+00  0.172E+00  0.865E-01  0.101E+00  0.865E-01  0.101E+00  0.106E+00  0.172E+00  0.865E-01  0.101E+00
  33.850  0.450E+00  0.651E+00  0.955E-01  0.176E+00  0.863E-01  0.100E+00  0.863E-01  0.100E+00  0.955E-01  0.176E+00  0.863E-01  0.100E+00
  33.900  0.435E+00  0.654E+00  0.875E-01  0.177E+00  0.868E-01  0.100E+00  0.868E-01  0.100E+00  0.875E-01  0.177E+00  0.868E-01  0.100E+00
  33.950  0.416E+00  0.654E+00  0.798E-01  0.178E+00  0.854E-01  0.996E-01  0.854E-01  0.996E-01  0.798E-01  0.178E+00  0.854E-01  0.996E-01
  34.000  0.401E+00  0.651E+00  0.733E-01  0.176E+00  0.847E-01  0.100E+00  0.847E-01  0.100E+00  0.733E-01  0.176E+00  0.847E-01  0.100E+00
  34.050  0.392E+00  0.659E+00  0.679E-01  0.179E+00  0.852E-01  0.100E+00  0.852E-01  0.100E+00  0.679E-01  0.179E+00  0.852E-01  0.100E+00
  34.100  0.382E+00  0.656E+00  0.626E-01  0.177E+00  0.856E-01  0.101E+00  0.856E-01  0.101E+00  0.626E-01  0.177E+00  0.856E-01  0.101E+00
  34.150  0.372E+00  0.656E+00  0.575E-01  0.178E+00  0.858E-01  0.100E+00  0.858E-01  0.100E+00  0.575E-01  0.178E+00  0.858E-01  0.100E+00
  34.200  0.366E+00  0.665E+00  0.533E-01  0.183E+00  0.865E-01  0.994E-01  0.865E-01  0.994E-01  0.533E-01  0.183E+00  0.865E-01  0.994E-01
  34.250  0.361E+00  0.737E+00  0.495E-01  0.220E+00  0.873E-01  0.990E-01  0.873E-01  0.990E-01  0.495E-01  0.220E+00  0.873E-01  0.990E-01
  34.300  0.358E+00  0.777E+00  0.462E-01  0.241E+00  0.885E-01  0.986E-01  0.885E-01  0.986E-01  0.462E-01  0.241E+00  0.885E-01  0.986E-01
  34.350  0.352E+00  0.740E+00  0.428E-01  0.235E+00  0.888E-01  0.901E-01  0.888E-01  0.901E-01  0.428E-01  0.235E+00  0.888E-01  0.901E-01
  34.400  0.349E+00  0.718E+00  0.398E-01  0.232E+00  0.897E-01  0.850E-01  0.897E-01  0.850E-01  0.398E-01  0.232E+00  0.897E-01  0.850E-01
  34.450  0.346E+00  0.704E+00  0.372E-01  0.227E+00  0.906E-01  0.833E-01  0.906E-01  0.833E-01  0.372E-01  0.227E+00  0.906E-01  0.833E-01
  34.500  0.344E+00  0.697E+00  0.348E-01  0.225E+00  0.916E-01  0.822E-01  0.916E-01  0.822E-01  0.348E-01  0.225E+00  0.916E-01  0.822E-01
  34.550  0.344E+00  0.714E+00  0.325E-01  0.233E+00  0.929E-01  0.826E-01  0.929E-01  0.826E-01  0.325E-01  0.233E+00  0.929E-01  0.826E-01
  34.600  0.346E+00  0.683E+00  0.305E-01  0.224E+00  0.948E-01  0.785E-01  0.948E-01  0.785E-01  0.305E-01  0.224E+00  0.948E-01  0.785E-01
  34.650  0.343E+00  0.681E+00  0.285E-01  0.227E+00  0.955E-01  0.755E-01  0.955E-01  0.755E-01  0.285E-01  0.227E+00  0.955E-01  0.755E-01
  34.700  0.341E+00  0.722E+00  0.266E-01  0.254E+00  0.960E-01  0.710E-01  0.960E-01  0.710E-01  0.266E-01  0.254E+00  0.960E-01  0.710E-01
  34.750  0.344E+00  0.735E+00  0.251E-01  0.268E+00  0.980E-01  0.661E-01  0.980E-01  0.661E-01  0.251E-01  0.268E+00  0.980E-01  0.661E-01
  34.800  0.330E+00  0.794E+00  0.234E-01  0.295E+00  0.943E-01  0.679E-01  0.943E-01  0.679E-01  0.234E-01  0.295E+00  0.943E-01  0.679E-01
  34.850  0.331E+00  0.894E+00  0.223E-01  0.339E+00  0.956E-01  0.720E-01  0.956E-01  0.720E-01  0.223E-01  0.339E+00  0.956E-01  0.720E-01
  34.900  0.327E+00  0.111E+01  0.207E-01  0.431E+00  0.953E-01  0.819E-01  0.953E-01  0.819E-01  0.207E-01  0.431E+00  0.953E-01  0.819E-01
  34.950  0.328E+00  0.179E+01  0.197E-01  0.742E+00  0.962E-01  0.102E+00  0.962E-01  0.102E+00  0.197E-01  0.742E+00  0.962E-01  0.102E+00
  35.000  0.330E+00  0.141E+01  0.180E-01  0.548E+00  0.980E-01  0.103E+00  0.980E-01  0.103E+00  0.180E-01  0.548E+00  0.980E-01  0.103E+00
  35.050  0.334E+00  0.850E+00  0.169E-01  0.269E+00  0.100E+00  0.104E+00  0.100E+00  0.104E+00  0.169E-01  0.269E+00  0.100E+00  0.104E+00
  35.100  0.329E+00  0.743E+00  0.159E-01  0.213E+00  0.991E-01  0.106E+00  0.991E-01  0.106E+00  0.159E-01  0.213E+00  0.991E-01  0.106E+00
  35.150  0.350E+00  0.669E+00  0.150E-01  0.175E+00  0.107E+00  0.106E+00  0.107E+00  0.106E+00  0.150E-01  0.175E+00  0.107E+00  0.106E+00
  35.200  0.387E+00  0.613E+00  0.140E-01  0.145E+00  0.120E+00  0.108E+00  0.120E+00  0.108E+00  0.140E-01  0.145E+00  0.120E+00  0.108E+00
  35.250  0.272E+00  0.567E+00  0.132E-01  0.123E+00  0.820E-01  0.107E+00  0.820E-01  0.107E+00  0.132E-01  0.123E+00  0.820E-01  0.107E+00
  35.300  0.246E+00  0.531E+00  0.125E-01  0.106E+00  0.735E-01  0.106E+00  0.735E-01  0.106E+00  0.125E-01  0.106E+00  0.735E-01  0.106E+00
  35.350  0.221E+00  0.498E+00  0.119E-01  0.927E-01  0.656E-01  0.104E+00  0.656E-01  0.104E+00  0.119E-01  0.927E-01  0.656E-01  0.104E+00
  35.400  0.208E+00  0.479E+00  0.114E-01  0.828E-01  0.619E-01  0.104E+00  0.619E-01  0.104E+00  0.114E-01  0.828E-01  0.619E-01  0.104E+00
  35.450  0.186E+00  0.461E+00  0.109E-01  0.745E-01  0.549E-01  0.104E+00  0.549E-01  0.104E+00  0.109E-01  0.745E-01  0.549E-01  0.104E+00
  35.500  0.168E+00  0.446E+00  0.105E-01  0.674E-01  0.489E-01  0.104E+00  0.489E-01  0.104E+00  0.105E-01  0.674E-01  0.489E-01  0.104E+00
  35.550  0.147E+00  0.432E+00  0.101E-01  0.609E-01  0.422E-01  0.103E+00  0.422E-01  0.103E+00  0.101E-01  0.609E-01  0.422E-01  0.103E+00
  35.600  0.131E+00  0.423E+00  0.974E-02  0.557E-01  0.371E-01  0.104E+00  0.371E-01  0.104E+00  0.974E-02  0.557E-01  0.371E-01  0.104E+00
  35.650  0.112E+00  0.407E+00  0.950E-02  0.506E-01  0.312E-01  0.102E+00  0.312E-01  0.102E+00  0.950E-02  0.506E-01  0.312E-01  0.102E+00
  35.700  0.951E-01  0.389E+00  0.926E-02  0.460E-01  0.255E-01  0.991E-01  0.255E-01  0.991E-01  0.926E-02  0.460E-01  0.255E-01  0.991E-01
  35.750  0.803E-01  0.379E+00  0.914E-02  0.424E-01  0.207E-01  0.980E-01  0.207E-01  0.980E-01  0.914E-02  0.424E-01  0.207E-01  0.980E-01
  35.800  0.732E-01  0.374E+00  0.899E-02  0.393E-01  0.184E-01  0.984E-01  0.184E-01  0.984E-01  0.899E-02  0.393E-01  0.184E-01  0.984E-01
  35.850  0.672E-01  0.380E+00  0.884E-02  0.366E-01  0.165E-01  0.102E+00  0.165E-01  0.102E+00  0.884E-02  0.366E-01  0.165E-01  0.102E+00
  35.900  0.638E-01  0.372E+00  0.884E-02  0.341E-01  0.154E-01  0.101E+00  0.154E-01  0.101E+00  0.884E-02  0.341E-01  0.154E-01  0.101E+00
  35.950  0.629E-01  0.364E+00  0.875E-02  0.318E-01  0.151E-01  0.100E+00  0.151E-01  0.100E+00  0.875E-02  0.318E-01  0.151E-01  0.100E+00
  36.000  0.620E-01  0.360E+00  0.863E-02  0.297E-01  0.149E-01  0.100E+00  0.149E-01  0.100E+00  0.863E-02  0.297E-01  0.149E-01  0.100E+00
  36.050  0.613E-01  0.404E+00  0.857E-02  0.277E-01  0.147E-01  0.116E+00  0.147E-01  0.116E+00  0.857E-02  0.277E-01  0.147E-01  0.116E+00
  36.100  0.605E-01  0.328E+00  0.851E-02  0.260E-01  0.145E-01  0.921E-01  0.145E-01  0.921E-01  0.851E-02  0.260E-01  0.145E-01  0.921E-01
  36.150  0.595E-01  0.278E+00  0.846E-02  0.244E-01  0.142E-01  0.763E-01  0.142E-01  0.763E-01  0.846E-02  0.244E-01  0.142E-01  0.763E-01
  36.200  0.588E-01  0.257E+00  0.841E-02  0.229E-01  0.140E-01  0.702E-01  0.140E-01  0.702E-01  0.841E-02  0.229E-01  0.140E-01  0.702E-01
  36.250  0.580E-01  0.233E+00  0.837E-02  0.216E-01  0.137E-01  0.634E-01  0.137E-01  0.634E-01  0.837E-02  0.216E-01  0.137E-01  0.634E-01
  36.300  0.570E-01  0.216E+00  0.832E-02  0.206E-01  0.134E-01  0.584E-01  0.134E-01  0.584E-01  0.832E-02  0.206E-01  0.134E-01  0.584E-01
  36.350  0.562E-01  0.194E+00  0.826E-02  0.192E-01  0.132E-01  0.519E-01  0.132E-01  0.519E-01  0.826E-02  0.192E-01  0.132E-01  0.519E-01
  36.400  0.551E-01  0.175E+00  0.820E-02  0.182E-01  0.129E-01  0.462E-01  0.129E-01  0.462E-01  0.820E-02  0.182E-01  0.129E-01  0.462E-01
  36.450  0.545E-01  0.155E+00  0.815E-02  0.174E-01  0.127E-01  0.402E-01  0.127E-01  0.402E-01  0.815E-02  0.174E-01  0.127E-01  0.402E-01
  36.500  0.541E-01  0.139E+00  0.813E-02  0.167E-01  0.126E-01  0.351E-01  0.126E-01  0.351E-01  0.813E-02  0.167E-01  0.126E-01  0.351E-01
  36.550  0.534E-01  0.126E+00  0.805E-02  0.161E-01  0.124E-01  0.311E-01  0.124E-01  0.311E-01  0.805E-02  0.161E-01  0.124E-01  0.311E-01
  36.600  0.525E-01  0.103E+00  0.795E-02  0.156E-01  0.122E-01  0.239E-01  0.122E-01  0.239E-01  0.795E-02  0.156E-01  0.122E-01  0.239E-01
  36.650  0.517E-01  0.899E-01  0.787E-02  0.152E-01  0.120E-01  0.199E-01  0.120E-01  0.199E-01  0.787E-02  0.152E-01  0.120E-01  0.199E-01
  36.700  0.512E-01  0.850E-01  0.780E-02  0.149E-01  0.119E-01  0.184E-01  0.119E-01  0.184E-01  0.780E-02  0.149E-01  0.119E-01  0.184E-01
  36.750  0.506E-01  0.791E-01  0.774E-02  0.148E-01  0.117E-01  0.165E-01  0.117E-01  0.165E-01  0.774E-02  0.148E-01  0.117E-01  0.165E-01
  36.800  0.500E-01  0.760E-01  0.766E-02  0.146E-01  0.116E-01  0.156E-01  0.116E-01  0.156E-01  0.766E-02  0.146E-01  0.116E-01  0.156E-01
  36.850  0.495E-01  0.751E-01  0.759E-02  0.145E-01  0.115E-01  0.154E-01  0.115E-01  0.154E-01  0.759E-02  0.145E-01  0.115E-01  0.154E-01
  36.900  0.491E-01  0.742E-01  0.752E-02  0.143E-01  0.113E-01  0.152E-01  0.113E-01  0.152E-01  0.752E-02  0.143E-01  0.113E-01  0.152E-01
  36.950  0.486E-01  0.732E-01  0.744E-02  0.141E-01  0.112E-01  0.150E-01  0.112E-01  0.150E-01  0.744E-02  0.141E-01  0.112E-01  0.150E-01
  37.000  0.480E-01  0.722E-01  0.736E-02  0.140E-01  0.111E-01  0.147E-01  0.111E-01  0.147E-01  0.736E-02  0.140E-01  0.111E-01  0.147E-01
  37.050  0.475E-01  0.703E-01  0.728E-02  0.136E-01  0.110E-01  0.144E-01  0.110E-01  0.144E-01  0.728E-02  0.136E-01  0.110E-01  0.144E-01
  37.100  0.470E-01  0.689E-01  0.720E-02  0.134E-01  0.109E-01  0.141E-01  0.109E-01  0.141E-01  0.720E-02  0.134E-01  0.109E-01  0.141E-01
  37.150  0.464E-01  0.674E-01  0.712E-02  0.131E-01  0.107E-01  0.137E-01  0.107E-01  0.137E-01  0.712E-02  0.131E-01  0.107E-01  0.137E-01
  37.200  0.459E-01  0.663E-01  0.706E-02  0.129E-01  0.106E-01  0.135E-01  0.106E-01  0.135E-01  0.706E-02  0.129E-01  0.106E-01  0.135E-01
  37.250  0.454E-01  0.657E-01  0.698E-02  0.128E-01  0.105E-01  0.134E-01  0.105E-01  0.134E-01  0.698E-02  0.128E-01  0.105E-01  0.134E-01
  37.300  0.450E-01  0.647E-01  0.693E-02  0.126E-01  0.104E-01  0.132E-01  0.104E-01  0.132E-01  0.693E-02  0.126E-01  0.104E-01  0.132E-01
  37.350  0.445E-01  0.634E-01  0.686E-02  0.124E-01  0.103E-01  0.129E-01  0.103E-01  0.129E-01  0.686E-02  0.124E-01  0.103E-01  0.129E-01
  37.400  0.442E-01  0.623E-01  0.681E-02  0.122E-01  0.102E-01  0.127E-01  0.102E-01  0.127E-01  0.681E-02  0.122E-01  0.102E-01  0.127E-01
  37.450  0.438E-01  0.615E-01  0.676E-02  0.120E-01  0.101E-01  0.125E-01  0.101E-01  0.125E-01  0.676E-02  0.120E-01  0.101E-01  0.125E-01
  37.500  0.434E-01  0.607E-01  0.670E-02  0.118E-01  0.999E-02  0.124E-01  0.999E-02  0.124E-01  0.670E-02  0.118E-01  0.999E-02  0.124E-01
  37.550  0.430E-01  0.601E-01  0.664E-02  0.117E-01  0.990E-02  0.122E-01  0.990E-02  0.122E-01  0.664E-02  0.117E-01  0.990E-02  0.122E-01
  37.600  0.425E-01  0.594E-01  0.659E-02  0.115E-01  0.979E-02  0.121E-01  0.979E-02  0.121E-01  0.659E-02  0.115E-01  0.979E-02  0.121E-01
  37.650  0.422E-01  0.587E-01  0.653E-02  0.114E-01  0.970E-02  0.120E-01  0.970E-02  0.120E-01  0.653E-02  0.114E-01  0.970E-02  0.120E-01
  37.700  0.418E-01  0.581E-01  0.648E-02  0.112E-01  0.960E-02  0.119E-01  0.960E-02  0.119E-01  0.648E-02  0.112E-01  0.960E-02  0.119E-01
  37.750  0.413E-01  0.574E-01  0.643E-02  0.111E-01  0.950E-02  0.117E-01  0.950E-02  0.117E-01  0.643E-02  0.111E-01  0.950E-02  0.117E-01
  37.800  0.409E-01  0.567E-01  0.637E-02  0.110E-01  0.937E-02  0.116E-01  0.937E-02  0.116E-01  0.637E-02  0.110E-01  0.937E-02  0.116E-01
  37.850  0.404E-01  0.561E-01  0.631E-02  0.108E-01  0.927E-02  0.115E-01  0.927E-02  0.115E-01  0.631E-02  0.108E-01  0.927E-02  0.115E-01
  37.900  0.400E-01  0.553E-01  0.625E-02  0.107E-01  0.917E-02  0.113E-01  0.917E-02  0.113E-01  0.625E-02  0.107E-01  0.917E-02  0.113E-01
  37.950  0.396E-01  0.546E-01  0.620E-02  0.105E-01  0.908E-02  0.112E-01  0.908E-02  0.112E-01  0.620E-02  0.105E-01  0.908E-02  0.112E-01
  38.000  0.393E-01  0.539E-01  0.616E-02  0.104E-01  0.900E-02  0.111E-01  0.900E-02  0.111E-01  0.616E-02  0.104E-01  0.900E-02  0.111E-01
  38.050  0.389E-01  0.533E-01  0.611E-02  0.102E-01  0.890E-02  0.110E-01  0.890E-02  0.110E-01  0.611E-02  0.102E-01  0.890E-02  0.110E-01
