# E (eV)  ldosup(E)  ldosdw(E) pdosup(E)  pdosdw(E) 
   5.000  0.000E+00  0.000E+00  0.000E+00  0.000E+00
   5.100  0.000E+00  0.000E+00  0.000E+00  0.000E+00
   5.200  0.000E+00  0.000E+00  0.000E+00  0.000E+00
   5.300  0.000E+00  0.000E+00  0.000E+00  0.000E+00
   5.400  0.000E+00  0.000E+00  0.000E+00  0.000E+00
   5.500  0.000E+00  0.000E+00  0.000E+00  0.000E+00
   5.600  0.000E+00  0.000E+00  0.000E+00  0.000E+00
   5.700  0.000E+00  0.000E+00  0.000E+00  0.000E+00
   5.800  0.000E+00  0.000E+00  0.000E+00  0.000E+00
   5.900  0.000E+00  0.000E+00  0.000E+00  0.000E+00
   6.000  0.000E+00  0.000E+00  0.000E+00  0.000E+00
   6.100  0.000E+00  0.000E+00  0.000E+00  0.000E+00
   6.200  0.000E+00  0.000E+00  0.000E+00  0.000E+00
   6.300  0.000E+00  0.000E+00  0.000E+00  0.000E+00
   6.400  0.000E+00  0.000E+00  0.000E+00  0.000E+00
   6.500  0.000E+00  0.000E+00  0.000E+00  0.000E+00
   6.600  0.000E+00  0.000E+00  0.000E+00  0.000E+00
   6.700  0.000E+00  0.000E+00  0.000E+00  0.000E+00
   6.800  0.000E+00  0.000E+00  0.000E+00  0.000E+00
   6.900  0.000E+00  0.000E+00  0.000E+00  0.000E+00
   7.000  0.000E+00  0.000E+00  0.000E+00  0.000E+00
   7.100  0.000E+00  0.000E+00  0.000E+00  0.000E+00
   7.200  0.000E+00  0.000E+00  0.000E+00  0.000E+00
   7.300  0.000E+00  0.000E+00  0.000E+00  0.000E+00
   7.400  0.000E+00  0.000E+00  0.000E+00  0.000E+00
   7.500  0.000E+00  0.000E+00  0.000E+00  0.000E+00
   7.600  0.000E+00  0.000E+00  0.000E+00  0.000E+00
   7.700  0.000E+00  0.000E+00  0.000E+00  0.000E+00
   7.800  0.000E+00  0.000E+00  0.000E+00  0.000E+00
   7.900  0.000E+00  0.000E+00  0.000E+00  0.000E+00
   8.000  0.000E+00  0.000E+00  0.000E+00  0.000E+00
   8.100  0.000E+00  0.000E+00  0.000E+00  0.000E+00
   8.200  0.000E+00  0.000E+00  0.000E+00  0.000E+00
   8.300  0.000E+00  0.000E+00  0.000E+00  0.000E+00
   8.400  0.000E+00  0.000E+00  0.000E+00  0.000E+00
   8.500  0.000E+00  0.000E+00  0.000E+00  0.000E+00
   8.600  0.000E+00  0.000E+00  0.000E+00  0.000E+00
   8.700  0.000E+00  0.000E+00  0.000E+00  0.000E+00
   8.800  0.000E+00  0.000E+00  0.000E+00  0.000E+00
   8.900  0.000E+00  0.000E+00  0.000E+00  0.000E+00
   9.000  0.000E+00  0.000E+00  0.000E+00  0.000E+00
   9.100  0.000E+00  0.000E+00  0.000E+00  0.000E+00
   9.200  0.000E+00  0.000E+00  0.000E+00  0.000E+00
   9.300  0.000E+00  0.000E+00  0.000E+00  0.000E+00
   9.400  0.000E+00  0.000E+00  0.000E+00  0.000E+00
   9.500  0.000E+00  0.000E+00  0.000E+00  0.000E+00
   9.600  0.000E+00  0.000E+00  0.000E+00  0.000E+00
   9.700  0.000E+00  0.000E+00  0.000E+00  0.000E+00
   9.800  0.000E+00  0.000E+00  0.000E+00  0.000E+00
   9.900  0.000E+00  0.000E+00  0.000E+00  0.000E+00
  10.000  0.000E+00  0.000E+00  0.000E+00  0.000E+00
  10.100  0.000E+00  0.000E+00  0.000E+00  0.000E+00
  10.200  0.000E+00  0.000E+00  0.000E+00  0.000E+00
  10.300  0.000E+00  0.000E+00  0.000E+00  0.000E+00
  10.400  0.000E+00  0.000E+00  0.000E+00  0.000E+00
  10.500  0.000E+00  0.000E+00  0.000E+00  0.000E+00
  10.600  0.000E+00  0.000E+00  0.000E+00  0.000E+00
  10.700  0.000E+00  0.000E+00  0.000E+00  0.000E+00
  10.800  0.000E+00  0.000E+00  0.000E+00  0.000E+00
  10.900  0.549E-02  0.000E+00  0.549E-02  0.000E+00
  11.000  0.915E-02  0.000E+00  0.915E-02  0.000E+00
  11.100  0.102E-01  0.000E+00  0.102E-01  0.000E+00
  11.200  0.116E-01  0.945E-05  0.116E-01  0.945E-05
  11.300  0.128E-01  0.645E-02  0.128E-01  0.645E-02
  11.400  0.132E-01  0.972E-02  0.132E-01  0.972E-02
  11.500  0.136E-01  0.104E-01  0.136E-01  0.104E-01
  11.600  0.142E-01  0.118E-01  0.142E-01  0.118E-01
  11.700  0.149E-01  0.128E-01  0.149E-01  0.128E-01
  11.800  0.150E-01  0.130E-01  0.150E-01  0.130E-01
  11.900  0.152E-01  0.134E-01  0.152E-01  0.134E-01
  12.000  0.155E-01  0.140E-01  0.155E-01  0.140E-01
  12.100  0.159E-01  0.146E-01  0.159E-01  0.146E-01
  12.200  0.163E-01  0.147E-01  0.163E-01  0.147E-01
  12.300  0.165E-01  0.148E-01  0.165E-01  0.148E-01
  12.400  0.167E-01  0.151E-01  0.167E-01  0.151E-01
  12.500  0.170E-01  0.155E-01  0.170E-01  0.155E-01
  12.600  0.173E-01  0.158E-01  0.173E-01  0.158E-01
  12.700  0.177E-01  0.160E-01  0.177E-01  0.160E-01
  12.800  0.181E-01  0.161E-01  0.181E-01  0.161E-01
  12.900  0.184E-01  0.164E-01  0.184E-01  0.164E-01
  13.000  0.188E-01  0.166E-01  0.188E-01  0.166E-01
  13.100  0.192E-01  0.170E-01  0.192E-01  0.170E-01
  13.200  0.197E-01  0.173E-01  0.197E-01  0.173E-01
  13.300  0.202E-01  0.176E-01  0.202E-01  0.176E-01
  13.400  0.207E-01  0.178E-01  0.207E-01  0.178E-01
  13.500  0.215E-01  0.180E-01  0.215E-01  0.180E-01
  13.600  0.223E-01  0.184E-01  0.223E-01  0.184E-01
  13.700  0.229E-01  0.188E-01  0.229E-01  0.188E-01
  13.800  0.239E-01  0.192E-01  0.239E-01  0.192E-01
  13.900  0.251E-01  0.196E-01  0.251E-01  0.196E-01
  14.000  0.264E-01  0.201E-01  0.264E-01  0.201E-01
  14.100  0.280E-01  0.205E-01  0.280E-01  0.205E-01
  14.200  0.302E-01  0.210E-01  0.302E-01  0.210E-01
  14.300  0.329E-01  0.217E-01  0.329E-01  0.217E-01
  14.400  0.369E-01  0.223E-01  0.369E-01  0.223E-01
  14.500  0.481E-01  0.230E-01  0.481E-01  0.230E-01
  14.600  0.690E-01  0.238E-01  0.690E-01  0.238E-01
  14.700  0.655E-01  0.248E-01  0.655E-01  0.248E-01
  14.800  0.640E-01  0.259E-01  0.640E-01  0.259E-01
  14.900  0.605E-01  0.269E-01  0.605E-01  0.269E-01
  15.000  0.591E-01  0.283E-01  0.591E-01  0.283E-01
  15.100  0.567E-01  0.299E-01  0.567E-01  0.299E-01
  15.200  0.549E-01  0.321E-01  0.549E-01  0.321E-01
  15.300  0.557E-01  0.343E-01  0.557E-01  0.343E-01
  15.400  0.602E-01  0.376E-01  0.602E-01  0.376E-01
  15.500  0.412E-01  0.424E-01  0.412E-01  0.424E-01
  15.600  0.307E-01  0.510E-01  0.307E-01  0.510E-01
  15.700  0.243E-01  0.664E-01  0.243E-01  0.664E-01
  15.800  0.187E-01  0.638E-01  0.187E-01  0.638E-01
  15.900  0.102E-01  0.617E-01  0.102E-01  0.617E-01
  16.000  0.589E-02  0.591E-01  0.589E-02  0.591E-01
  16.100  0.307E-02  0.569E-01  0.307E-02  0.569E-01
  16.200  0.133E-02  0.550E-01  0.133E-02  0.550E-01
  16.300  0.193E-02  0.526E-01  0.193E-02  0.526E-01
  16.400  0.253E-02  0.504E-01  0.253E-02  0.504E-01
  16.500  0.263E-02  0.490E-01  0.263E-02  0.490E-01
  16.600  0.353E-02  0.499E-01  0.353E-02  0.499E-01
  16.700  0.525E-02  0.462E-01  0.525E-02  0.462E-01
  16.800  0.586E-02  0.355E-01  0.586E-02  0.355E-01
  16.900  0.595E-02  0.273E-01  0.595E-02  0.273E-01
  17.000  0.716E-02  0.219E-01  0.716E-02  0.219E-01
  17.100  0.792E-02  0.173E-01  0.792E-02  0.173E-01
  17.200  0.995E-02  0.988E-02  0.995E-02  0.988E-02
  17.300  0.777E-02  0.550E-02  0.777E-02  0.550E-02
  17.400  0.632E-02  0.251E-02  0.632E-02  0.251E-02
  17.500  0.528E-02  0.627E-03  0.528E-02  0.627E-03
  17.600  0.466E-02  0.906E-03  0.466E-02  0.906E-03
  17.700  0.417E-02  0.148E-02  0.417E-02  0.148E-02
  17.800  0.372E-02  0.346E-02  0.372E-02  0.346E-02
  17.900  0.333E-02  0.319E-02  0.333E-02  0.319E-02
  18.000  0.293E-02  0.333E-02  0.293E-02  0.333E-02
  18.100  0.260E-02  0.366E-02  0.260E-02  0.366E-02
  18.200  0.227E-02  0.397E-02  0.227E-02  0.397E-02
  18.300  0.203E-02  0.405E-02  0.203E-02  0.405E-02
  18.400  0.187E-02  0.366E-02  0.187E-02  0.366E-02
  18.500  0.198E-02  0.361E-02  0.198E-02  0.361E-02
  18.600  0.637E-02  0.436E-02  0.637E-02  0.436E-02
  18.700  0.552E-02  0.403E-02  0.552E-02  0.403E-02
  18.800  0.489E-02  0.363E-02  0.489E-02  0.363E-02
  18.900  0.450E-02  0.323E-02  0.450E-02  0.323E-02
  19.000  0.420E-02  0.291E-02  0.420E-02  0.291E-02
  19.100  0.401E-02  0.267E-02  0.401E-02  0.267E-02
  19.200  0.287E-02  0.242E-02  0.287E-02  0.242E-02
  19.300  0.350E-02  0.220E-02  0.350E-02  0.220E-02
  19.400  0.581E-02  0.200E-02  0.581E-02  0.200E-02
  19.500  0.696E-02  0.178E-02  0.696E-02  0.178E-02
  19.600  0.722E-02  0.155E-02  0.722E-02  0.155E-02
  19.700  0.721E-02  0.137E-02  0.721E-02  0.137E-02
  19.800  0.687E-02  0.119E-02  0.687E-02  0.119E-02
  19.900  0.656E-02  0.103E-02  0.656E-02  0.103E-02
  20.000  0.615E-02  0.892E-03  0.615E-02  0.892E-03
  20.100  0.569E-02  0.851E-03  0.569E-02  0.851E-03
  20.200  0.529E-02  0.916E-03  0.529E-02  0.916E-03
  20.300  0.511E-02  0.218E-02  0.511E-02  0.218E-02
  20.400  0.517E-02  0.459E-02  0.517E-02  0.459E-02
  20.500  0.549E-02  0.374E-02  0.549E-02  0.374E-02
  20.600  0.579E-02  0.334E-02  0.579E-02  0.334E-02
  20.700  0.615E-02  0.298E-02  0.615E-02  0.298E-02
  20.800  0.651E-02  0.267E-02  0.651E-02  0.267E-02
  20.900  0.684E-02  0.236E-02  0.684E-02  0.236E-02
  21.000  0.717E-02  0.219E-02  0.717E-02  0.219E-02
  21.100  0.746E-02  0.230E-02  0.746E-02  0.230E-02
  21.200  0.775E-02  0.168E-02  0.775E-02  0.168E-02
  21.300  0.800E-02  0.105E-02  0.800E-02  0.105E-02
  21.400  0.828E-02  0.119E-02  0.828E-02  0.119E-02
  21.500  0.855E-02  0.285E-02  0.855E-02  0.285E-02
  21.600  0.876E-02  0.753E-02  0.876E-02  0.753E-02
  21.700  0.896E-02  0.682E-02  0.896E-02  0.682E-02
  21.800  0.917E-02  0.592E-02  0.917E-02  0.592E-02
  21.900  0.934E-02  0.545E-02  0.934E-02  0.545E-02
  22.000  0.949E-02  0.505E-02  0.949E-02  0.505E-02
  22.100  0.963E-02  0.480E-02  0.963E-02  0.480E-02
  22.200  0.977E-02  0.464E-02  0.977E-02  0.464E-02
  22.300  0.988E-02  0.483E-02  0.988E-02  0.483E-02
  22.400  0.999E-02  0.502E-02  0.999E-02  0.502E-02
  22.500  0.101E-01  0.518E-02  0.101E-01  0.518E-02
  22.600  0.101E-01  0.558E-02  0.101E-01  0.558E-02
  22.700  0.102E-01  0.593E-02  0.102E-01  0.593E-02
  22.800  0.103E-01  0.628E-02  0.103E-01  0.628E-02
  22.900  0.102E-01  0.656E-02  0.102E-01  0.656E-02
  23.000  0.102E-01  0.682E-02  0.102E-01  0.682E-02
  23.100  0.101E-01  0.709E-02  0.101E-01  0.709E-02
  23.200  0.101E-01  0.733E-02  0.101E-01  0.733E-02
  23.300  0.100E-01  0.758E-02  0.100E-01  0.758E-02
  23.400  0.997E-02  0.782E-02  0.997E-02  0.782E-02
  23.500  0.988E-02  0.798E-02  0.988E-02  0.798E-02
  23.600  0.979E-02  0.818E-02  0.979E-02  0.818E-02
  23.700  0.969E-02  0.835E-02  0.969E-02  0.835E-02
  23.800  0.956E-02  0.850E-02  0.956E-02  0.850E-02
  23.900  0.941E-02  0.862E-02  0.941E-02  0.862E-02
  24.000  0.927E-02  0.877E-02  0.927E-02  0.877E-02
  24.100  0.907E-02  0.887E-02  0.907E-02  0.887E-02
  24.200  0.881E-02  0.895E-02  0.881E-02  0.895E-02
  24.300  0.860E-02  0.898E-02  0.860E-02  0.898E-02
  24.400  0.837E-02  0.901E-02  0.837E-02  0.901E-02
  24.500  0.813E-02  0.898E-02  0.813E-02  0.898E-02
  24.600  0.789E-02  0.897E-02  0.789E-02  0.897E-02
  24.700  0.767E-02  0.896E-02  0.767E-02  0.896E-02
  24.800  0.742E-02  0.892E-02  0.742E-02  0.892E-02
  24.900  0.717E-02  0.887E-02  0.717E-02  0.887E-02
  25.000  0.694E-02  0.880E-02  0.694E-02  0.880E-02
  25.100  0.671E-02  0.871E-02  0.671E-02  0.871E-02
