# E (eV)  ldosup(E)  ldosdw(E) pdosup(E)  pdosdw(E) 
   5.000  0.000E+00  0.000E+00  0.000E+00  0.000E+00
   5.100  0.000E+00  0.000E+00  0.000E+00  0.000E+00
   5.200  0.000E+00  0.000E+00  0.000E+00  0.000E+00
   5.300  0.000E+00  0.000E+00  0.000E+00  0.000E+00
   5.400  0.000E+00  0.000E+00  0.000E+00  0.000E+00
   5.500  0.000E+00  0.000E+00  0.000E+00  0.000E+00
   5.600  0.000E+00  0.000E+00  0.000E+00  0.000E+00
   5.700  0.000E+00  0.000E+00  0.000E+00  0.000E+00
   5.800  0.000E+00  0.000E+00  0.000E+00  0.000E+00
   5.900  0.000E+00  0.000E+00  0.000E+00  0.000E+00
   6.000  0.000E+00  0.000E+00  0.000E+00  0.000E+00
   6.100  0.000E+00  0.000E+00  0.000E+00  0.000E+00
   6.200  0.000E+00  0.000E+00  0.000E+00  0.000E+00
   6.300  0.000E+00  0.000E+00  0.000E+00  0.000E+00
   6.400  0.000E+00  0.000E+00  0.000E+00  0.000E+00
   6.500  0.000E+00  0.000E+00  0.000E+00  0.000E+00
   6.600  0.000E+00  0.000E+00  0.000E+00  0.000E+00
   6.700  0.000E+00  0.000E+00  0.000E+00  0.000E+00
   6.800  0.000E+00  0.000E+00  0.000E+00  0.000E+00
   6.900  0.000E+00  0.000E+00  0.000E+00  0.000E+00
   7.000  0.000E+00  0.000E+00  0.000E+00  0.000E+00
   7.100  0.000E+00  0.000E+00  0.000E+00  0.000E+00
   7.200  0.000E+00  0.000E+00  0.000E+00  0.000E+00
   7.300  0.000E+00  0.000E+00  0.000E+00  0.000E+00
   7.400  0.000E+00  0.000E+00  0.000E+00  0.000E+00
   7.500  0.000E+00  0.000E+00  0.000E+00  0.000E+00
   7.600  0.000E+00  0.000E+00  0.000E+00  0.000E+00
   7.700  0.000E+00  0.000E+00  0.000E+00  0.000E+00
   7.800  0.000E+00  0.000E+00  0.000E+00  0.000E+00
   7.900  0.000E+00  0.000E+00  0.000E+00  0.000E+00
   8.000  0.000E+00  0.000E+00  0.000E+00  0.000E+00
   8.100  0.000E+00  0.000E+00  0.000E+00  0.000E+00
   8.200  0.000E+00  0.000E+00  0.000E+00  0.000E+00
   8.300  0.000E+00  0.000E+00  0.000E+00  0.000E+00
   8.400  0.000E+00  0.000E+00  0.000E+00  0.000E+00
   8.500  0.000E+00  0.000E+00  0.000E+00  0.000E+00
   8.600  0.000E+00  0.000E+00  0.000E+00  0.000E+00
   8.700  0.000E+00  0.000E+00  0.000E+00  0.000E+00
   8.800  0.000E+00  0.000E+00  0.000E+00  0.000E+00
   8.900  0.000E+00  0.000E+00  0.000E+00  0.000E+00
   9.000  0.000E+00  0.000E+00  0.000E+00  0.000E+00
   9.100  0.000E+00  0.000E+00  0.000E+00  0.000E+00
   9.200  0.000E+00  0.000E+00  0.000E+00  0.000E+00
   9.300  0.000E+00  0.000E+00  0.000E+00  0.000E+00
   9.400  0.000E+00  0.000E+00  0.000E+00  0.000E+00
   9.500  0.000E+00  0.000E+00  0.000E+00  0.000E+00
   9.600  0.000E+00  0.000E+00  0.000E+00  0.000E+00
   9.700  0.000E+00  0.000E+00  0.000E+00  0.000E+00
   9.800  0.000E+00  0.000E+00  0.000E+00  0.000E+00
   9.900  0.000E+00  0.000E+00  0.000E+00  0.000E+00
  10.000  0.000E+00  0.000E+00  0.000E+00  0.000E+00
  10.100  0.000E+00  0.000E+00  0.000E+00  0.000E+00
  10.200  0.000E+00  0.000E+00  0.000E+00  0.000E+00
  10.300  0.000E+00  0.000E+00  0.000E+00  0.000E+00
  10.400  0.000E+00  0.000E+00  0.000E+00  0.000E+00
  10.500  0.000E+00  0.000E+00  0.000E+00  0.000E+00
  10.600  0.000E+00  0.000E+00  0.000E+00  0.000E+00
  10.700  0.000E+00  0.000E+00  0.000E+00  0.000E+00
  10.800  0.000E+00  0.000E+00  0.000E+00  0.000E+00
  10.900  0.773E-03  0.000E+00  0.773E-03  0.000E+00
  11.000  0.146E-02  0.000E+00  0.146E-02  0.000E+00
  11.100  0.182E-02  0.000E+00  0.182E-02  0.000E+00
  11.200  0.226E-02  0.127E-05  0.226E-02  0.127E-05
  11.300  0.269E-02  0.968E-03  0.269E-02  0.968E-03
  11.400  0.298E-02  0.165E-02  0.298E-02  0.165E-02
  11.500  0.326E-02  0.195E-02  0.326E-02  0.195E-02
  11.600  0.359E-02  0.241E-02  0.359E-02  0.241E-02
  11.700  0.396E-02  0.283E-02  0.396E-02  0.283E-02
  11.800  0.417E-02  0.308E-02  0.417E-02  0.308E-02
  11.900  0.440E-02  0.336E-02  0.440E-02  0.336E-02
  12.000  0.464E-02  0.371E-02  0.464E-02  0.371E-02
  12.100  0.491E-02  0.406E-02  0.491E-02  0.406E-02
  12.200  0.518E-02  0.425E-02  0.518E-02  0.425E-02
  12.300  0.539E-02  0.446E-02  0.539E-02  0.446E-02
  12.400  0.556E-02  0.471E-02  0.556E-02  0.471E-02
  12.500  0.577E-02  0.497E-02  0.577E-02  0.497E-02
  12.600  0.596E-02  0.522E-02  0.596E-02  0.522E-02
  12.700  0.618E-02  0.541E-02  0.618E-02  0.541E-02
  12.800  0.639E-02  0.558E-02  0.639E-02  0.558E-02
  12.900  0.655E-02  0.576E-02  0.655E-02  0.576E-02
  13.000  0.671E-02  0.594E-02  0.671E-02  0.594E-02
  13.100  0.686E-02  0.614E-02  0.686E-02  0.614E-02
  13.200  0.705E-02  0.631E-02  0.705E-02  0.631E-02
  13.300  0.720E-02  0.648E-02  0.720E-02  0.648E-02
  13.400  0.732E-02  0.659E-02  0.732E-02  0.659E-02
  13.500  0.750E-02  0.671E-02  0.750E-02  0.671E-02
  13.600  0.765E-02  0.685E-02  0.765E-02  0.685E-02
  13.700  0.773E-02  0.697E-02  0.773E-02  0.697E-02
  13.800  0.786E-02  0.706E-02  0.786E-02  0.706E-02
  13.900  0.799E-02  0.717E-02  0.799E-02  0.717E-02
  14.000  0.810E-02  0.729E-02  0.810E-02  0.729E-02
  14.100  0.819E-02  0.733E-02  0.819E-02  0.733E-02
  14.200  0.835E-02  0.737E-02  0.835E-02  0.737E-02
  14.300  0.843E-02  0.745E-02  0.843E-02  0.745E-02
  14.400  0.855E-02  0.748E-02  0.855E-02  0.748E-02
  14.500  0.891E-02  0.750E-02  0.891E-02  0.750E-02
  14.600  0.884E-02  0.750E-02  0.884E-02  0.750E-02
  14.700  0.816E-02  0.752E-02  0.816E-02  0.752E-02
  14.800  0.749E-02  0.753E-02  0.749E-02  0.753E-02
  14.900  0.675E-02  0.744E-02  0.675E-02  0.744E-02
  15.000  0.615E-02  0.739E-02  0.615E-02  0.739E-02
  15.100  0.550E-02  0.732E-02  0.550E-02  0.732E-02
  15.200  0.481E-02  0.727E-02  0.481E-02  0.727E-02
  15.300  0.436E-02  0.710E-02  0.436E-02  0.710E-02
  15.400  0.424E-02  0.699E-02  0.424E-02  0.699E-02
  15.500  0.224E-02  0.682E-02  0.224E-02  0.682E-02
  15.600  0.129E-02  0.656E-02  0.129E-02  0.656E-02
  15.700  0.815E-03  0.630E-02  0.815E-03  0.630E-02
  15.800  0.503E-03  0.578E-02  0.503E-03  0.578E-02
  15.900  0.281E-03  0.521E-02  0.281E-03  0.521E-02
  16.000  0.174E-03  0.468E-02  0.174E-03  0.468E-02
  16.100  0.114E-03  0.417E-02  0.114E-03  0.417E-02
  16.200  0.742E-04  0.369E-02  0.742E-04  0.369E-02
  16.300  0.104E-03  0.325E-02  0.104E-03  0.325E-02
  16.400  0.174E-03  0.281E-02  0.174E-03  0.281E-02
  16.500  0.292E-03  0.244E-02  0.292E-03  0.244E-02
  16.600  0.507E-03  0.226E-02  0.507E-03  0.226E-02
  16.700  0.821E-03  0.168E-02  0.821E-03  0.168E-02
  16.800  0.118E-02  0.995E-03  0.118E-02  0.995E-03
  16.900  0.136E-02  0.598E-03  0.136E-02  0.598E-03
  17.000  0.186E-02  0.373E-03  0.186E-02  0.373E-03
  17.100  0.269E-02  0.231E-03  0.269E-02  0.231E-03
  17.200  0.541E-02  0.124E-03  0.541E-02  0.124E-03
  17.300  0.474E-02  0.638E-04  0.474E-02  0.638E-04
  17.400  0.320E-02  0.263E-04  0.320E-02  0.263E-04
  17.500  0.204E-02  0.148E-04  0.204E-02  0.148E-04
  17.600  0.158E-02  0.289E-04  0.158E-02  0.289E-04
  17.700  0.128E-02  0.583E-04  0.128E-02  0.583E-04
  17.800  0.107E-02  0.166E-03  0.107E-02  0.166E-03
  17.900  0.894E-03  0.277E-03  0.894E-03  0.277E-03
  18.000  0.745E-03  0.451E-03  0.745E-03  0.451E-03
  18.100  0.648E-03  0.690E-03  0.648E-03  0.690E-03
  18.200  0.553E-03  0.102E-02  0.553E-03  0.102E-02
  18.300  0.486E-03  0.139E-02  0.486E-03  0.139E-02
  18.400  0.444E-03  0.168E-02  0.444E-03  0.168E-02
  18.500  0.408E-03  0.218E-02  0.408E-03  0.218E-02
  18.600  0.397E-03  0.380E-02  0.397E-03  0.380E-02
  18.700  0.337E-03  0.464E-02  0.337E-03  0.464E-02
  18.800  0.295E-03  0.519E-02  0.295E-03  0.519E-02
  18.900  0.335E-03  0.252E-02  0.335E-03  0.252E-02
  19.000  0.430E-03  0.161E-02  0.430E-03  0.161E-02
  19.100  0.312E-03  0.113E-02  0.312E-03  0.113E-02
  19.200  0.291E-03  0.836E-03  0.291E-03  0.836E-03
  19.300  0.669E-03  0.656E-03  0.669E-03  0.656E-03
  19.400  0.104E-02  0.531E-03  0.104E-02  0.531E-03
  19.500  0.131E-02  0.420E-03  0.131E-02  0.420E-03
  19.600  0.136E-02  0.331E-03  0.136E-02  0.331E-03
  19.700  0.137E-02  0.276E-03  0.137E-02  0.276E-03
  19.800  0.133E-02  0.222E-03  0.133E-02  0.222E-03
  19.900  0.133E-02  0.188E-03  0.133E-02  0.188E-03
  20.000  0.131E-02  0.168E-03  0.131E-02  0.168E-03
  20.100  0.126E-02  0.156E-03  0.126E-02  0.156E-03
  20.200  0.121E-02  0.136E-03  0.121E-02  0.136E-03
  20.300  0.118E-02  0.131E-03  0.118E-02  0.131E-03
  20.400  0.116E-02  0.137E-03  0.116E-02  0.137E-03
  20.500  0.115E-02  0.146E-03  0.115E-02  0.146E-03
  20.600  0.112E-02  0.170E-03  0.112E-02  0.170E-03
  20.700  0.109E-02  0.204E-03  0.109E-02  0.204E-03
  20.800  0.105E-02  0.202E-03  0.105E-02  0.202E-03
  20.900  0.101E-02  0.153E-03  0.101E-02  0.153E-03
  21.000  0.969E-03  0.159E-03  0.969E-03  0.159E-03
  21.100  0.916E-03  0.197E-03  0.916E-03  0.197E-03
  21.200  0.862E-03  0.271E-03  0.862E-03  0.271E-03
  21.300  0.807E-03  0.431E-03  0.807E-03  0.431E-03
  21.400  0.755E-03  0.367E-03  0.755E-03  0.367E-03
  21.500  0.703E-03  0.528E-03  0.703E-03  0.528E-03
  21.600  0.649E-03  0.849E-03  0.649E-03  0.849E-03
  21.700  0.598E-03  0.994E-03  0.598E-03  0.994E-03
  21.800  0.548E-03  0.110E-02  0.548E-03  0.110E-02
  21.900  0.498E-03  0.114E-02  0.498E-03  0.114E-02
  22.000  0.448E-03  0.112E-02  0.448E-03  0.112E-02
  22.100  0.403E-03  0.109E-02  0.403E-03  0.109E-02
  22.200  0.362E-03  0.104E-02  0.362E-03  0.104E-02
  22.300  0.322E-03  0.101E-02  0.322E-03  0.101E-02
  22.400  0.285E-03  0.959E-03  0.285E-03  0.959E-03
  22.500  0.251E-03  0.891E-03  0.251E-03  0.891E-03
  22.600  0.219E-03  0.848E-03  0.219E-03  0.848E-03
  22.700  0.189E-03  0.796E-03  0.189E-03  0.796E-03
  22.800  0.162E-03  0.745E-03  0.162E-03  0.745E-03
  22.900  0.137E-03  0.687E-03  0.137E-03  0.687E-03
  23.000  0.115E-03  0.631E-03  0.115E-03  0.631E-03
  23.100  0.963E-04  0.577E-03  0.963E-04  0.577E-03
  23.200  0.799E-04  0.525E-03  0.799E-04  0.525E-03
  23.300  0.658E-04  0.476E-03  0.658E-04  0.476E-03
  23.400  0.534E-04  0.428E-03  0.534E-04  0.428E-03
  23.500  0.425E-04  0.378E-03  0.425E-04  0.378E-03
  23.600  0.331E-04  0.334E-03  0.331E-04  0.334E-03
  23.700  0.254E-04  0.294E-03  0.254E-04  0.294E-03
  23.800  0.190E-04  0.256E-03  0.190E-04  0.256E-03
  23.900  0.136E-04  0.221E-03  0.136E-04  0.221E-03
  24.000  0.904E-05  0.190E-03  0.904E-05  0.190E-03
  24.100  0.555E-05  0.161E-03  0.555E-05  0.161E-03
  24.200  0.351E-05  0.135E-03  0.351E-05  0.135E-03
  24.300  0.248E-05  0.111E-03  0.248E-05  0.111E-03
  24.400  0.206E-05  0.900E-04  0.206E-05  0.900E-04
  24.500  0.214E-05  0.722E-04  0.214E-05  0.722E-04
  24.600  0.255E-05  0.579E-04  0.255E-05  0.579E-04
  24.700  0.327E-05  0.456E-04  0.327E-05  0.456E-04
  24.800  0.420E-05  0.351E-04  0.420E-05  0.351E-04
  24.900  0.520E-05  0.265E-04  0.520E-05  0.265E-04
  25.000  0.631E-05  0.194E-04  0.631E-05  0.194E-04
  25.100  0.754E-05  0.136E-04  0.754E-05  0.136E-04
