# E (eV)  ldosup(E)  ldosdw(E) pdosup(E)  pdosdw(E)  pdosup(E)  pdosdw(E)  pdosup(E)  pdosdw(E)  pdosup(E)  pdosdw(E)  pdosup(E)  pdosdw(E) 
  10.000  0.910E-04  0.283E-04  0.161E-04  0.489E-05  0.196E-04  0.616E-05  0.196E-04  0.616E-05  0.161E-04  0.489E-05  0.196E-04  0.616E-05
  10.100  0.141E-03  0.457E-04  0.249E-04  0.785E-05  0.304E-04  0.100E-04  0.304E-04  0.100E-04  0.249E-04  0.785E-05  0.304E-04  0.100E-04
  10.200  0.197E-03  0.708E-04  0.349E-04  0.121E-04  0.425E-04  0.155E-04  0.425E-04  0.155E-04  0.349E-04  0.121E-04  0.425E-04  0.155E-04
  10.300  0.270E-03  0.102E-03  0.479E-04  0.173E-04  0.581E-04  0.225E-04  0.581E-04  0.225E-04  0.479E-04  0.173E-04  0.581E-04  0.225E-04
  10.400  0.365E-03  0.139E-03  0.648E-04  0.237E-04  0.784E-04  0.306E-04  0.784E-04  0.306E-04  0.648E-04  0.237E-04  0.784E-04  0.306E-04
  10.500  0.486E-03  0.186E-03  0.866E-04  0.317E-04  0.104E-03  0.410E-04  0.104E-03  0.410E-04  0.866E-04  0.317E-04  0.104E-03  0.410E-04
  10.600  0.636E-03  0.246E-03  0.112E-03  0.418E-04  0.137E-03  0.541E-04  0.137E-03  0.541E-04  0.112E-03  0.418E-04  0.137E-03  0.541E-04
  10.700  0.805E-03  0.319E-03  0.143E-03  0.541E-04  0.173E-03  0.703E-04  0.173E-03  0.703E-04  0.143E-03  0.541E-04  0.173E-03  0.703E-04
  10.800  0.101E-02  0.404E-03  0.181E-03  0.678E-04  0.218E-03  0.894E-04  0.218E-03  0.894E-04  0.181E-03  0.678E-04  0.218E-03  0.894E-04
  10.900  0.127E-02  0.499E-03  0.228E-03  0.843E-04  0.272E-03  0.110E-03  0.272E-03  0.110E-03  0.228E-03  0.843E-04  0.272E-03  0.110E-03
  11.000  0.158E-02  0.615E-03  0.285E-03  0.104E-03  0.338E-03  0.136E-03  0.338E-03  0.136E-03  0.285E-03  0.104E-03  0.338E-03  0.136E-03
  11.100  0.196E-02  0.752E-03  0.351E-03  0.128E-03  0.420E-03  0.165E-03  0.420E-03  0.165E-03  0.351E-03  0.128E-03  0.420E-03  0.165E-03
  11.200  0.242E-02  0.913E-03  0.432E-03  0.155E-03  0.518E-03  0.201E-03  0.518E-03  0.201E-03  0.432E-03  0.155E-03  0.518E-03  0.201E-03
  11.300  0.294E-02  0.110E-02  0.528E-03  0.186E-03  0.627E-03  0.243E-03  0.627E-03  0.243E-03  0.528E-03  0.186E-03  0.627E-03  0.243E-03
  11.400  0.357E-02  0.132E-02  0.646E-03  0.221E-03  0.759E-03  0.291E-03  0.759E-03  0.291E-03  0.646E-03  0.221E-03  0.759E-03  0.291E-03
  11.500  0.436E-02  0.155E-02  0.792E-03  0.263E-03  0.925E-03  0.343E-03  0.925E-03  0.343E-03  0.792E-03  0.263E-03  0.925E-03  0.343E-03
  11.600  0.529E-02  0.183E-02  0.962E-03  0.311E-03  0.112E-02  0.403E-03  0.112E-02  0.403E-03  0.962E-03  0.311E-03  0.112E-02  0.403E-03
  11.700  0.640E-02  0.216E-02  0.116E-02  0.368E-03  0.136E-02  0.475E-03  0.136E-02  0.475E-03  0.116E-02  0.368E-03  0.136E-02  0.475E-03
  11.800  0.782E-02  0.254E-02  0.142E-02  0.432E-03  0.166E-02  0.557E-03  0.166E-02  0.557E-03  0.142E-02  0.432E-03  0.166E-02  0.557E-03
  11.900  0.948E-02  0.295E-02  0.173E-02  0.502E-03  0.200E-02  0.650E-03  0.200E-02  0.650E-03  0.173E-02  0.502E-03  0.200E-02  0.650E-03
  12.000  0.115E-01  0.345E-02  0.212E-02  0.586E-03  0.243E-02  0.760E-03  0.243E-02  0.760E-03  0.212E-02  0.586E-03  0.243E-02  0.760E-03
  12.100  0.141E-01  0.402E-02  0.261E-02  0.684E-03  0.297E-02  0.884E-03  0.297E-02  0.884E-03  0.261E-02  0.684E-03  0.297E-02  0.884E-03
  12.200  0.175E-01  0.465E-02  0.323E-02  0.794E-03  0.368E-02  0.102E-02  0.368E-02  0.102E-02  0.323E-02  0.794E-03  0.368E-02  0.102E-02
  12.300  0.216E-01  0.538E-02  0.399E-02  0.922E-03  0.453E-02  0.118E-02  0.453E-02  0.118E-02  0.399E-02  0.922E-03  0.453E-02  0.118E-02
  12.400  0.274E-01  0.623E-02  0.507E-02  0.107E-02  0.575E-02  0.136E-02  0.575E-02  0.136E-02  0.507E-02  0.107E-02  0.575E-02  0.136E-02
  12.500  0.351E-01  0.721E-02  0.653E-02  0.124E-02  0.736E-02  0.158E-02  0.736E-02  0.158E-02  0.653E-02  0.124E-02  0.736E-02  0.158E-02
  12.600  0.460E-01  0.834E-02  0.857E-02  0.143E-02  0.960E-02  0.183E-02  0.960E-02  0.183E-02  0.857E-02  0.143E-02  0.960E-02  0.183E-02
  12.700  0.643E-01  0.963E-02  0.120E-01  0.165E-02  0.135E-01  0.211E-02  0.135E-01  0.211E-02  0.120E-01  0.165E-02  0.135E-01  0.211E-02
  12.800  0.103E+00  0.112E-01  0.192E-01  0.192E-02  0.217E-01  0.245E-02  0.217E-01  0.245E-02  0.192E-01  0.192E-02  0.217E-01  0.245E-02
  12.900  0.276E+00  0.129E-01  0.520E-01  0.223E-02  0.572E-01  0.283E-02  0.572E-01  0.283E-02  0.520E-01  0.223E-02  0.572E-01  0.283E-02
  13.000  0.349E+00  0.150E-01  0.861E-01  0.258E-02  0.588E-01  0.327E-02  0.588E-01  0.327E-02  0.861E-01  0.258E-02  0.588E-01  0.327E-02
  13.100  0.411E+00  0.174E-01  0.113E+00  0.300E-02  0.618E-01  0.380E-02  0.618E-01  0.380E-02  0.113E+00  0.300E-02  0.618E-01  0.380E-02
  13.200  0.457E+00  0.203E-01  0.134E+00  0.350E-02  0.632E-01  0.443E-02  0.632E-01  0.443E-02  0.134E+00  0.350E-02  0.632E-01  0.443E-02
  13.300  0.523E+00  0.238E-01  0.161E+00  0.409E-02  0.668E-01  0.519E-02  0.668E-01  0.519E-02  0.161E+00  0.409E-02  0.668E-01  0.519E-02
  13.400  0.594E+00  0.280E-01  0.193E+00  0.482E-02  0.693E-01  0.611E-02  0.693E-01  0.611E-02  0.193E+00  0.482E-02  0.693E-01  0.611E-02
  13.500  0.736E+00  0.331E-01  0.255E+00  0.570E-02  0.756E-01  0.724E-02  0.756E-01  0.724E-02  0.255E+00  0.570E-02  0.756E-01  0.724E-02
  13.600  0.958E+00  0.396E-01  0.353E+00  0.682E-02  0.843E-01  0.865E-02  0.843E-01  0.865E-02  0.353E+00  0.682E-02  0.843E-01  0.865E-02
  13.700  0.621E+00  0.474E-01  0.200E+00  0.815E-02  0.739E-01  0.104E-01  0.739E-01  0.104E-01  0.200E+00  0.815E-02  0.739E-01  0.104E-01
  13.800  0.536E+00  0.580E-01  0.155E+00  0.994E-02  0.751E-01  0.127E-01  0.751E-01  0.127E-01  0.155E+00  0.994E-02  0.751E-01  0.127E-01
  13.900  0.490E+00  0.739E-01  0.128E+00  0.126E-01  0.778E-01  0.162E-01  0.778E-01  0.162E-01  0.128E+00  0.126E-01  0.778E-01  0.162E-01
  14.000  0.501E+00  0.959E-01  0.114E+00  0.163E-01  0.906E-01  0.211E-01  0.906E-01  0.211E-01  0.114E+00  0.163E-01  0.906E-01  0.211E-01
  14.100  0.368E+00  0.145E+00  0.104E+00  0.242E-01  0.532E-01  0.321E-01  0.532E-01  0.321E-01  0.104E+00  0.242E-01  0.532E-01  0.321E-01
  14.200  0.324E+00  0.192E+00  0.104E+00  0.321E-01  0.388E-01  0.425E-01  0.388E-01  0.425E-01  0.104E+00  0.321E-01  0.388E-01  0.425E-01
  14.300  0.485E+00  0.195E+00  0.108E+00  0.333E-01  0.895E-01  0.427E-01  0.895E-01  0.427E-01  0.108E+00  0.333E-01  0.895E-01  0.427E-01
  14.400  0.207E+01  0.201E+00  0.219E+00  0.351E-01  0.544E+00  0.437E-01  0.544E+00  0.437E-01  0.219E+00  0.351E-01  0.544E+00  0.437E-01
  14.500  0.147E+01  0.207E+00  0.184E+00  0.370E-01  0.367E+00  0.443E-01  0.367E+00  0.443E-01  0.184E+00  0.370E-01  0.367E+00  0.443E-01
  14.600  0.111E+01  0.215E+00  0.145E+00  0.394E-01  0.274E+00  0.453E-01  0.274E+00  0.453E-01  0.145E+00  0.394E-01  0.274E+00  0.453E-01
  14.700  0.100E+01  0.222E+00  0.128E+00  0.421E-01  0.248E+00  0.458E-01  0.248E+00  0.458E-01  0.128E+00  0.421E-01  0.248E+00  0.458E-01
  14.800  0.103E+01  0.260E+00  0.126E+00  0.593E-01  0.259E+00  0.471E-01  0.259E+00  0.471E-01  0.126E+00  0.593E-01  0.259E+00  0.471E-01
  14.900  0.910E+00  0.333E+00  0.911E-01  0.936E-01  0.242E+00  0.486E-01  0.242E+00  0.486E-01  0.911E-01  0.936E-01  0.242E+00  0.486E-01
  15.000  0.101E+01  0.410E+00  0.104E+00  0.130E+00  0.267E+00  0.500E-01  0.267E+00  0.500E-01  0.104E+00  0.130E+00  0.267E+00  0.500E-01
  15.100  0.140E+01  0.492E+00  0.176E+00  0.168E+00  0.350E+00  0.520E-01  0.350E+00  0.520E-01  0.176E+00  0.168E+00  0.350E+00  0.520E-01
  15.200  0.142E+01  0.507E+00  0.171E+00  0.172E+00  0.358E+00  0.546E-01  0.358E+00  0.546E-01  0.171E+00  0.172E+00  0.358E+00  0.546E-01
  15.300  0.115E+01  0.500E+00  0.117E+00  0.164E+00  0.306E+00  0.573E-01  0.306E+00  0.573E-01  0.117E+00  0.164E+00  0.306E+00  0.573E-01
  15.400  0.102E+01  0.384E+00  0.742E-01  0.109E+00  0.290E+00  0.551E-01  0.290E+00  0.551E-01  0.742E-01  0.109E+00  0.290E+00  0.551E-01
  15.500  0.453E+00  0.360E+00  0.556E-01  0.916E-01  0.114E+00  0.589E-01  0.114E+00  0.589E-01  0.556E-01  0.916E-01  0.114E+00  0.589E-01
  15.600  0.388E+00  0.266E+00  0.486E-01  0.820E-01  0.968E-01  0.338E-01  0.968E-01  0.338E-01  0.486E-01  0.820E-01  0.968E-01  0.338E-01
  15.700  0.375E+00  0.245E+00  0.463E-01  0.789E-01  0.943E-01  0.290E-01  0.943E-01  0.290E-01  0.463E-01  0.789E-01  0.943E-01  0.290E-01
  15.800  0.384E+00  0.194E+00  0.487E-01  0.766E-01  0.954E-01  0.136E-01  0.954E-01  0.136E-01  0.487E-01  0.766E-01  0.954E-01  0.136E-01
  15.900  0.420E+00  0.656E+00  0.580E-01  0.908E-01  0.101E+00  0.158E+00  0.101E+00  0.158E+00  0.580E-01  0.908E-01  0.101E+00  0.158E+00
  16.000  0.483E+00  0.106E+01  0.718E-01  0.135E+00  0.113E+00  0.265E+00  0.113E+00  0.265E+00  0.718E-01  0.135E+00  0.113E+00  0.265E+00
  16.100  0.581E+00  0.130E+01  0.101E+00  0.142E+00  0.126E+00  0.338E+00  0.126E+00  0.338E+00  0.101E+00  0.142E+00  0.126E+00  0.338E+00
  16.200  0.780E+00  0.117E+01  0.148E+00  0.125E+00  0.161E+00  0.306E+00  0.161E+00  0.306E+00  0.148E+00  0.125E+00  0.161E+00  0.306E+00
  16.300  0.134E+01  0.111E+01  0.277E+00  0.118E+00  0.261E+00  0.291E+00  0.261E+00  0.291E+00  0.277E+00  0.118E+00  0.261E+00  0.291E+00
  16.400  0.166E+01  0.107E+01  0.425E+00  0.113E+00  0.271E+00  0.282E+00  0.271E+00  0.282E+00  0.425E+00  0.113E+00  0.271E+00  0.282E+00
  16.500  0.186E+01  0.102E+01  0.499E+00  0.106E+00  0.286E+00  0.270E+00  0.286E+00  0.270E+00  0.499E+00  0.106E+00  0.286E+00  0.270E+00
  16.600  0.260E+01  0.964E+00  0.828E+00  0.914E-01  0.314E+00  0.260E+00  0.314E+00  0.260E+00  0.828E+00  0.914E-01  0.314E+00  0.260E+00
  16.700  0.285E+01  0.920E+00  0.103E+01  0.808E-01  0.266E+00  0.253E+00  0.266E+00  0.253E+00  0.103E+01  0.808E-01  0.266E+00  0.253E+00
  16.800  0.209E+01  0.113E+01  0.775E+00  0.113E+00  0.179E+00  0.303E+00  0.179E+00  0.303E+00  0.775E+00  0.113E+00  0.179E+00  0.303E+00
  16.900  0.119E+01  0.110E+01  0.343E+00  0.105E+00  0.168E+00  0.296E+00  0.168E+00  0.296E+00  0.343E+00  0.105E+00  0.168E+00  0.296E+00
  17.000  0.952E+00  0.982E+00  0.218E+00  0.779E-01  0.172E+00  0.275E+00  0.172E+00  0.275E+00  0.218E+00  0.779E-01  0.172E+00  0.275E+00
  17.100  0.855E+00  0.814E+00  0.152E+00  0.498E-01  0.183E+00  0.238E+00  0.183E+00  0.238E+00  0.152E+00  0.498E-01  0.183E+00  0.238E+00
  17.200  0.775E+00  0.740E+00  0.107E+00  0.335E-01  0.187E+00  0.224E+00  0.187E+00  0.224E+00  0.107E+00  0.335E-01  0.187E+00  0.224E+00
  17.300  0.717E+00  0.706E+00  0.802E-01  0.208E-01  0.185E+00  0.221E+00  0.185E+00  0.221E+00  0.802E-01  0.208E-01  0.185E+00  0.221E+00
  17.400  0.709E+00  0.263E+00  0.617E-01  0.131E-01  0.195E+00  0.788E-01  0.195E+00  0.788E-01  0.617E-01  0.131E-01  0.195E+00  0.788E-01
  17.500  0.732E+00  0.215E+00  0.466E-01  0.880E-02  0.213E+00  0.658E-01  0.213E+00  0.658E-01  0.466E-01  0.880E-02  0.213E+00  0.658E-01
  17.600  0.723E+00  0.202E+00  0.354E-01  0.664E-02  0.217E+00  0.629E-01  0.217E+00  0.629E-01  0.354E-01  0.664E-02  0.217E+00  0.629E-01
  17.700  0.743E+00  0.191E+00  0.269E-01  0.579E-02  0.230E+00  0.597E-01  0.230E+00  0.597E-01  0.269E-01  0.579E-02  0.230E+00  0.597E-01
  17.800  0.554E+00  0.207E+00  0.209E-01  0.840E-02  0.171E+00  0.635E-01  0.171E+00  0.635E-01  0.209E-01  0.840E-02  0.171E+00  0.635E-01
  17.900  0.342E+00  0.223E+00  0.170E-01  0.109E-01  0.103E+00  0.672E-01  0.103E+00  0.672E-01  0.170E-01  0.109E-01  0.103E+00  0.672E-01
  18.000  0.156E+00  0.247E+00  0.150E-01  0.161E-01  0.419E-01  0.716E-01  0.419E-01  0.716E-01  0.150E-01  0.161E-01  0.419E-01  0.716E-01
  18.100  0.109E+00  0.280E+00  0.145E-01  0.254E-01  0.268E-01  0.763E-01  0.268E-01  0.763E-01  0.145E-01  0.254E-01  0.268E-01  0.763E-01
  18.200  0.105E+00  0.333E+00  0.143E-01  0.364E-01  0.253E-01  0.867E-01  0.253E-01  0.867E-01  0.143E-01  0.364E-01  0.253E-01  0.867E-01
  18.300  0.995E-01  0.404E+00  0.138E-01  0.497E-01  0.240E-01  0.102E+00  0.240E-01  0.102E+00  0.138E-01  0.497E-01  0.240E-01  0.102E+00
  18.400  0.946E-01  0.569E+00  0.134E-01  0.805E-01  0.226E-01  0.136E+00  0.226E-01  0.136E+00  0.134E-01  0.805E-01  0.226E-01  0.136E+00
  18.500  0.906E-01  0.663E+00  0.128E-01  0.106E+00  0.216E-01  0.150E+00  0.216E-01  0.150E+00  0.128E-01  0.106E+00  0.216E-01  0.150E+00
  18.600  0.869E-01  0.743E+00  0.124E-01  0.131E+00  0.207E-01  0.160E+00  0.207E-01  0.160E+00  0.124E-01  0.131E+00  0.207E-01  0.160E+00
  18.700  0.839E-01  0.819E+00  0.120E-01  0.160E+00  0.200E-01  0.166E+00  0.200E-01  0.166E+00  0.120E-01  0.160E+00  0.200E-01  0.166E+00
  18.800  0.813E-01  0.897E+00  0.117E-01  0.198E+00  0.193E-01  0.167E+00  0.193E-01  0.167E+00  0.117E-01  0.198E+00  0.193E-01  0.167E+00
  18.900  0.781E-01  0.998E+00  0.114E-01  0.246E+00  0.185E-01  0.169E+00  0.185E-01  0.169E+00  0.114E-01  0.246E+00  0.185E-01  0.169E+00
  19.000  0.751E-01  0.121E+01  0.110E-01  0.332E+00  0.177E-01  0.180E+00  0.177E-01  0.180E+00  0.110E-01  0.332E+00  0.177E-01  0.180E+00
  19.100  0.722E-01  0.149E+01  0.106E-01  0.429E+00  0.170E-01  0.209E+00  0.170E-01  0.209E+00  0.106E-01  0.429E+00  0.170E-01  0.209E+00
  19.200  0.691E-01  0.156E+01  0.103E-01  0.467E+00  0.161E-01  0.207E+00  0.161E-01  0.207E+00  0.103E-01  0.467E+00  0.161E-01  0.207E+00
  19.300  0.664E-01  0.108E+01  0.998E-02  0.310E+00  0.155E-01  0.153E+00  0.155E-01  0.153E+00  0.998E-02  0.310E+00  0.155E-01  0.153E+00
  19.400  0.641E-01  0.129E+01  0.967E-02  0.445E+00  0.149E-01  0.134E+00  0.149E-01  0.134E+00  0.967E-02  0.445E+00  0.149E-01  0.134E+00
  19.500  0.619E-01  0.165E+01  0.937E-02  0.583E+00  0.144E-01  0.162E+00  0.144E-01  0.162E+00  0.937E-02  0.583E+00  0.144E-01  0.162E+00
  19.600  0.596E-01  0.329E+01  0.908E-02  0.119E+01  0.138E-01  0.302E+00  0.138E-01  0.302E+00  0.908E-02  0.119E+01  0.138E-01  0.302E+00
  19.700  0.574E-01  0.153E+01  0.878E-02  0.396E+00  0.133E-01  0.246E+00  0.133E-01  0.246E+00  0.878E-02  0.396E+00  0.133E-01  0.246E+00
  19.800  0.555E-01  0.105E+01  0.854E-02  0.206E+00  0.128E-01  0.211E+00  0.128E-01  0.211E+00  0.854E-02  0.206E+00  0.128E-01  0.211E+00
  19.900  0.534E-01  0.901E+00  0.826E-02  0.137E+00  0.123E-01  0.209E+00  0.123E-01  0.209E+00  0.826E-02  0.137E+00  0.123E-01  0.209E+00
  20.000  0.515E-01  0.661E+00  0.799E-02  0.965E-01  0.118E-01  0.156E+00  0.118E-01  0.156E+00  0.799E-02  0.965E-01  0.118E-01  0.156E+00
  20.100  0.493E-01  0.447E+00  0.774E-02  0.711E-01  0.113E-01  0.102E+00  0.113E-01  0.102E+00  0.774E-02  0.711E-01  0.113E-01  0.102E+00
  20.200  0.472E-01  0.271E+00  0.748E-02  0.570E-01  0.108E-01  0.524E-01  0.108E-01  0.524E-01  0.748E-02  0.570E-01  0.108E-01  0.524E-01
  20.300  0.453E-01  0.219E+00  0.723E-02  0.499E-01  0.103E-01  0.397E-01  0.103E-01  0.397E-01  0.723E-02  0.499E-01  0.103E-01  0.397E-01
  20.400  0.436E-01  0.197E+00  0.697E-02  0.445E-01  0.987E-02  0.362E-01  0.987E-02  0.362E-01  0.697E-02  0.445E-01  0.987E-02  0.362E-01
  20.500  0.419E-01  0.179E+00  0.673E-02  0.398E-01  0.949E-02  0.330E-01  0.949E-02  0.330E-01  0.673E-02  0.398E-01  0.949E-02  0.330E-01
  20.600  0.404E-01  0.167E+00  0.652E-02  0.364E-01  0.911E-02  0.315E-01  0.911E-02  0.315E-01  0.652E-02  0.364E-01  0.911E-02  0.315E-01
  20.700  0.388E-01  0.156E+00  0.629E-02  0.333E-01  0.874E-02  0.299E-01  0.874E-02  0.299E-01  0.629E-02  0.333E-01  0.874E-02  0.299E-01
  20.800  0.374E-01  0.147E+00  0.607E-02  0.307E-01  0.840E-02  0.285E-01  0.840E-02  0.285E-01  0.607E-02  0.307E-01  0.840E-02  0.285E-01
  20.900  0.359E-01  0.139E+00  0.586E-02  0.286E-01  0.806E-02  0.272E-01  0.806E-02  0.272E-01  0.586E-02  0.286E-01  0.806E-02  0.272E-01
  21.000  0.344E-01  0.131E+00  0.563E-02  0.270E-01  0.770E-02  0.258E-01  0.770E-02  0.258E-01  0.563E-02  0.270E-01  0.770E-02  0.258E-01
  21.100  0.329E-01  0.124E+00  0.542E-02  0.252E-01  0.736E-02  0.246E-01  0.736E-02  0.246E-01  0.542E-02  0.252E-01  0.736E-02  0.246E-01
  21.200  0.316E-01  0.118E+00  0.524E-02  0.238E-01  0.703E-02  0.235E-01  0.703E-02  0.235E-01  0.524E-02  0.238E-01  0.703E-02  0.235E-01
  21.300  0.299E-01  0.112E+00  0.504E-02  0.224E-01  0.663E-02  0.225E-01  0.663E-02  0.225E-01  0.504E-02  0.224E-01  0.663E-02  0.225E-01
  21.400  0.286E-01  0.107E+00  0.483E-02  0.211E-01  0.633E-02  0.214E-01  0.633E-02  0.214E-01  0.483E-02  0.211E-01  0.633E-02  0.214E-01
  21.500  0.275E-01  0.101E+00  0.466E-02  0.201E-01  0.605E-02  0.204E-01  0.605E-02  0.204E-01  0.466E-02  0.201E-01  0.605E-02  0.204E-01
  21.600  0.262E-01  0.967E-01  0.446E-02  0.190E-01  0.575E-02  0.195E-01  0.575E-02  0.195E-01  0.446E-02  0.190E-01  0.575E-02  0.195E-01
  21.700  0.250E-01  0.915E-01  0.427E-02  0.180E-01  0.549E-02  0.185E-01  0.549E-02  0.185E-01  0.427E-02  0.180E-01  0.549E-02  0.185E-01
  21.800  0.240E-01  0.868E-01  0.411E-02  0.171E-01  0.525E-02  0.175E-01  0.525E-02  0.175E-01  0.411E-02  0.171E-01  0.525E-02  0.175E-01
  21.900  0.229E-01  0.824E-01  0.395E-02  0.162E-01  0.501E-02  0.167E-01  0.501E-02  0.167E-01  0.395E-02  0.162E-01  0.501E-02  0.167E-01
  22.000  0.218E-01  0.785E-01  0.377E-02  0.154E-01  0.476E-02  0.159E-01  0.476E-02  0.159E-01  0.377E-02  0.154E-01  0.476E-02  0.159E-01
  22.100  0.208E-01  0.748E-01  0.361E-02  0.147E-01  0.452E-02  0.152E-01  0.452E-02  0.152E-01  0.361E-02  0.147E-01  0.452E-02  0.152E-01
  22.200  0.198E-01  0.710E-01  0.346E-02  0.139E-01  0.429E-02  0.144E-01  0.429E-02  0.144E-01  0.346E-02  0.139E-01  0.429E-02  0.144E-01
  22.300  0.189E-01  0.674E-01  0.330E-02  0.132E-01  0.409E-02  0.137E-01  0.409E-02  0.137E-01  0.330E-02  0.132E-01  0.409E-02  0.137E-01
  22.400  0.179E-01  0.641E-01  0.315E-02  0.126E-01  0.388E-02  0.130E-01  0.388E-02  0.130E-01  0.315E-02  0.126E-01  0.388E-02  0.130E-01
  22.500  0.170E-01  0.611E-01  0.302E-02  0.119E-01  0.366E-02  0.124E-01  0.366E-02  0.124E-01  0.302E-02  0.119E-01  0.366E-02  0.124E-01
  22.600  0.158E-01  0.577E-01  0.286E-02  0.113E-01  0.338E-02  0.117E-01  0.338E-02  0.117E-01  0.286E-02  0.113E-01  0.338E-02  0.117E-01
  22.700  0.150E-01  0.542E-01  0.271E-02  0.108E-01  0.318E-02  0.109E-01  0.318E-02  0.109E-01  0.271E-02  0.108E-01  0.318E-02  0.109E-01
  22.800  0.142E-01  0.514E-01  0.259E-02  0.102E-01  0.300E-02  0.103E-01  0.300E-02  0.103E-01  0.259E-02  0.102E-01  0.300E-02  0.103E-01
  22.900  0.133E-01  0.488E-01  0.245E-02  0.968E-02  0.279E-02  0.982E-02  0.279E-02  0.982E-02  0.245E-02  0.968E-02  0.279E-02  0.982E-02
  23.000  0.126E-01  0.462E-01  0.235E-02  0.919E-02  0.263E-02  0.928E-02  0.263E-02  0.928E-02  0.235E-02  0.919E-02  0.263E-02  0.928E-02
  23.100  0.119E-01  0.438E-01  0.221E-02  0.871E-02  0.249E-02  0.880E-02  0.249E-02  0.880E-02  0.221E-02  0.871E-02  0.249E-02  0.880E-02
  23.200  0.111E-01  0.414E-01  0.208E-02  0.823E-02  0.233E-02  0.833E-02  0.233E-02  0.833E-02  0.208E-02  0.823E-02  0.233E-02  0.833E-02
  23.300  0.105E-01  0.392E-01  0.197E-02  0.783E-02  0.217E-02  0.785E-02  0.217E-02  0.785E-02  0.197E-02  0.783E-02  0.217E-02  0.785E-02
  23.400  0.979E-02  0.369E-01  0.185E-02  0.738E-02  0.203E-02  0.736E-02  0.203E-02  0.736E-02  0.185E-02  0.738E-02  0.203E-02  0.736E-02
  23.500  0.920E-02  0.348E-01  0.177E-02  0.696E-02  0.189E-02  0.697E-02  0.189E-02  0.697E-02  0.177E-02  0.696E-02  0.189E-02  0.697E-02
  23.600  0.862E-02  0.330E-01  0.165E-02  0.662E-02  0.177E-02  0.659E-02  0.177E-02  0.659E-02  0.165E-02  0.662E-02  0.177E-02  0.659E-02
  23.700  0.773E-02  0.308E-01  0.151E-02  0.623E-02  0.157E-02  0.611E-02  0.157E-02  0.611E-02  0.151E-02  0.623E-02  0.157E-02  0.611E-02
  23.800  0.683E-02  0.286E-01  0.136E-02  0.587E-02  0.137E-02  0.563E-02  0.137E-02  0.563E-02  0.136E-02  0.587E-02  0.137E-02  0.563E-02
  23.900  0.613E-02  0.269E-01  0.123E-02  0.552E-02  0.122E-02  0.529E-02  0.122E-02  0.529E-02  0.123E-02  0.552E-02  0.122E-02  0.529E-02
  24.000  0.602E-02  0.252E-01  0.114E-02  0.522E-02  0.125E-02  0.492E-02  0.125E-02  0.492E-02  0.114E-02  0.522E-02  0.125E-02  0.492E-02
  24.100  0.476E-02  0.234E-01  0.108E-02  0.486E-02  0.869E-03  0.456E-02  0.869E-03  0.456E-02  0.108E-02  0.486E-02  0.869E-03  0.456E-02
  24.200  0.383E-02  0.220E-01  0.969E-03  0.458E-02  0.631E-03  0.427E-02  0.631E-03  0.427E-02  0.969E-03  0.458E-02  0.631E-03  0.427E-02
  24.300  0.332E-02  0.206E-01  0.866E-03  0.430E-02  0.528E-03  0.400E-02  0.528E-03  0.400E-02  0.866E-03  0.430E-02  0.528E-03  0.400E-02
  24.400  0.295E-02  0.190E-01  0.770E-03  0.398E-02  0.469E-03  0.369E-02  0.469E-03  0.369E-02  0.770E-03  0.398E-02  0.469E-03  0.369E-02
  24.500  0.280E-02  0.179E-01  0.728E-03  0.377E-02  0.448E-03  0.345E-02  0.448E-03  0.345E-02  0.728E-03  0.377E-02  0.448E-03  0.345E-02
  24.600  0.269E-02  0.164E-01  0.672E-03  0.346E-02  0.450E-03  0.316E-02  0.450E-03  0.316E-02  0.672E-03  0.346E-02  0.450E-03  0.316E-02
  24.700  0.290E-02  0.151E-01  0.658E-03  0.321E-02  0.529E-03  0.291E-02  0.529E-03  0.291E-02  0.658E-03  0.321E-02  0.529E-03  0.291E-02
  24.800  0.151E-01  0.139E-01  0.152E-02  0.298E-02  0.402E-02  0.265E-02  0.402E-02  0.265E-02  0.152E-02  0.298E-02  0.402E-02  0.265E-02
  24.900  0.241E-01  0.121E-01  0.231E-02  0.266E-02  0.651E-02  0.225E-02  0.651E-02  0.225E-02  0.231E-02  0.266E-02  0.651E-02  0.225E-02
  25.000  0.309E-01  0.110E-01  0.282E-02  0.237E-02  0.843E-02  0.208E-02  0.843E-02  0.208E-02  0.282E-02  0.237E-02  0.843E-02  0.208E-02
  25.100  0.309E-01  0.912E-02  0.297E-02  0.210E-02  0.833E-02  0.164E-02  0.833E-02  0.164E-02  0.297E-02  0.210E-02  0.833E-02  0.164E-02
  25.200  0.303E-01  0.731E-02  0.295E-02  0.188E-02  0.813E-02  0.118E-02  0.813E-02  0.118E-02  0.295E-02  0.188E-02  0.813E-02  0.118E-02
  25.300  0.293E-01  0.619E-02  0.279E-02  0.168E-02  0.789E-02  0.944E-03  0.789E-02  0.944E-03  0.279E-02  0.168E-02  0.789E-02  0.944E-03
  25.400  0.260E-01  0.546E-02  0.261E-02  0.151E-02  0.692E-02  0.815E-03  0.692E-02  0.815E-03  0.261E-02  0.151E-02  0.692E-02  0.815E-03
  25.500  0.242E-01  0.482E-02  0.256E-02  0.132E-02  0.638E-02  0.727E-03  0.638E-02  0.727E-03  0.256E-02  0.132E-02  0.638E-02  0.727E-03
  25.600  0.233E-01  0.440E-02  0.263E-02  0.117E-02  0.600E-02  0.686E-03  0.600E-02  0.686E-03  0.263E-02  0.117E-02  0.600E-02  0.686E-03
  25.700  0.213E-01  0.416E-02  0.235E-02  0.105E-02  0.555E-02  0.687E-03  0.555E-02  0.687E-03  0.235E-02  0.105E-02  0.555E-02  0.687E-03
  25.800  0.195E-01  0.424E-02  0.211E-02  0.101E-02  0.511E-02  0.740E-03  0.511E-02  0.740E-03  0.211E-02  0.101E-02  0.511E-02  0.740E-03
  25.900  0.184E-01  0.472E-02  0.199E-02  0.109E-02  0.482E-02  0.846E-03  0.482E-02  0.846E-03  0.199E-02  0.109E-02  0.482E-02  0.846E-03
  26.000  0.174E-01  0.761E-02  0.189E-02  0.150E-02  0.454E-02  0.154E-02  0.454E-02  0.154E-02  0.189E-02  0.150E-02  0.454E-02  0.154E-02
  26.100  0.160E-01  0.105E-01  0.180E-02  0.172E-02  0.413E-02  0.235E-02  0.413E-02  0.235E-02  0.180E-02  0.172E-02  0.413E-02  0.235E-02
  26.200  0.151E-01  0.728E-01  0.172E-02  0.782E-02  0.388E-02  0.191E-01  0.388E-02  0.191E-01  0.172E-02  0.782E-02  0.388E-02  0.191E-01
  26.300  0.142E-01  0.674E-01  0.165E-02  0.750E-02  0.364E-02  0.175E-01  0.364E-02  0.175E-01  0.165E-02  0.750E-02  0.364E-02  0.175E-01
  26.400  0.134E-01  0.611E-01  0.154E-02  0.678E-02  0.343E-02  0.158E-01  0.343E-02  0.158E-01  0.154E-02  0.678E-02  0.343E-02  0.158E-01
  26.500  0.127E-01  0.521E-01  0.148E-02  0.635E-02  0.326E-02  0.131E-01  0.326E-02  0.131E-01  0.148E-02  0.635E-02  0.326E-02  0.131E-01
  26.600  0.121E-01  0.466E-01  0.142E-02  0.582E-02  0.309E-02  0.116E-01  0.309E-02  0.116E-01  0.142E-02  0.582E-02  0.309E-02  0.116E-01
  26.700  0.117E-01  0.418E-01  0.142E-02  0.522E-02  0.297E-02  0.105E-01  0.297E-02  0.105E-01  0.142E-02  0.522E-02  0.297E-02  0.105E-01
  26.800  0.113E-01  0.381E-01  0.133E-02  0.475E-02  0.287E-02  0.952E-02  0.287E-02  0.952E-02  0.133E-02  0.475E-02  0.287E-02  0.952E-02
  26.900  0.115E-01  0.355E-01  0.125E-02  0.442E-02  0.300E-02  0.889E-02  0.300E-02  0.889E-02  0.125E-02  0.442E-02  0.300E-02  0.889E-02
  27.000  0.122E-01  0.319E-01  0.120E-02  0.411E-02  0.326E-02  0.790E-02  0.326E-02  0.790E-02  0.120E-02  0.411E-02  0.326E-02  0.790E-02
  27.100  0.118E-01  0.295E-01  0.116E-02  0.384E-02  0.316E-02  0.726E-02  0.316E-02  0.726E-02  0.116E-02  0.384E-02  0.316E-02  0.726E-02
  27.200  0.116E-01  0.275E-01  0.113E-02  0.363E-02  0.312E-02  0.675E-02  0.312E-02  0.675E-02  0.113E-02  0.363E-02  0.312E-02  0.675E-02
  27.300  0.113E-01  0.261E-01  0.109E-02  0.353E-02  0.305E-02  0.636E-02  0.305E-02  0.636E-02  0.109E-02  0.353E-02  0.305E-02  0.636E-02
  27.400  0.110E-01  0.246E-01  0.105E-02  0.335E-02  0.296E-02  0.598E-02  0.296E-02  0.598E-02  0.105E-02  0.335E-02  0.296E-02  0.598E-02
  27.500  0.107E-01  0.229E-01  0.101E-02  0.307E-02  0.289E-02  0.557E-02  0.289E-02  0.557E-02  0.101E-02  0.307E-02  0.289E-02  0.557E-02
  27.600  0.105E-01  0.215E-01  0.990E-03  0.288E-02  0.283E-02  0.525E-02  0.283E-02  0.525E-02  0.990E-03  0.288E-02  0.283E-02  0.525E-02
  27.700  0.103E-01  0.209E-01  0.968E-03  0.271E-02  0.277E-02  0.515E-02  0.277E-02  0.515E-02  0.968E-03  0.271E-02  0.277E-02  0.515E-02
  27.800  0.101E-01  0.227E-01  0.947E-03  0.259E-02  0.272E-02  0.584E-02  0.272E-02  0.584E-02  0.947E-03  0.259E-02  0.272E-02  0.584E-02
  27.900  0.974E-02  0.226E-01  0.918E-03  0.252E-02  0.264E-02  0.585E-02  0.264E-02  0.585E-02  0.918E-03  0.252E-02  0.264E-02  0.585E-02
  28.000  0.944E-02  0.222E-01  0.894E-03  0.245E-02  0.255E-02  0.578E-02  0.255E-02  0.578E-02  0.894E-03  0.245E-02  0.255E-02  0.578E-02
  28.100  0.915E-02  0.217E-01  0.868E-03  0.239E-02  0.247E-02  0.565E-02  0.247E-02  0.565E-02  0.868E-03  0.239E-02  0.247E-02  0.565E-02
  28.200  0.887E-02  0.210E-01  0.846E-03  0.232E-02  0.239E-02  0.545E-02  0.239E-02  0.545E-02  0.846E-03  0.232E-02  0.239E-02  0.545E-02
  28.300  0.866E-02  0.204E-01  0.824E-03  0.226E-02  0.234E-02  0.528E-02  0.234E-02  0.528E-02  0.824E-03  0.226E-02  0.234E-02  0.528E-02
  28.400  0.843E-02  0.198E-01  0.800E-03  0.219E-02  0.227E-02  0.513E-02  0.227E-02  0.513E-02  0.800E-03  0.219E-02  0.227E-02  0.513E-02
  28.500  0.818E-02  0.191E-01  0.778E-03  0.213E-02  0.221E-02  0.496E-02  0.221E-02  0.496E-02  0.778E-03  0.213E-02  0.221E-02  0.496E-02
  28.600  0.804E-02  0.186E-01  0.760E-03  0.207E-02  0.217E-02  0.482E-02  0.217E-02  0.482E-02  0.760E-03  0.207E-02  0.217E-02  0.482E-02
  28.700  0.774E-02  0.181E-01  0.735E-03  0.203E-02  0.209E-02  0.468E-02  0.209E-02  0.468E-02  0.735E-03  0.203E-02  0.209E-02  0.468E-02
  28.800  0.754E-02  0.175E-01  0.714E-03  0.197E-02  0.204E-02  0.452E-02  0.204E-02  0.452E-02  0.714E-03  0.197E-02  0.204E-02  0.452E-02
  28.900  0.735E-02  0.169E-01  0.692E-03  0.192E-02  0.199E-02  0.437E-02  0.199E-02  0.437E-02  0.692E-03  0.192E-02  0.199E-02  0.437E-02
  29.000  0.716E-02  0.165E-01  0.672E-03  0.188E-02  0.194E-02  0.425E-02  0.194E-02  0.425E-02  0.672E-03  0.188E-02  0.194E-02  0.425E-02
  29.100  0.696E-02  0.161E-01  0.653E-03  0.184E-02  0.189E-02  0.415E-02  0.189E-02  0.415E-02  0.653E-03  0.184E-02  0.189E-02  0.415E-02
  29.200  0.678E-02  0.157E-01  0.634E-03  0.179E-02  0.184E-02  0.403E-02  0.184E-02  0.403E-02  0.634E-03  0.179E-02  0.184E-02  0.403E-02
  29.300  0.660E-02  0.152E-01  0.616E-03  0.173E-02  0.179E-02  0.390E-02  0.179E-02  0.390E-02  0.616E-03  0.173E-02  0.179E-02  0.390E-02
  29.400  0.641E-02  0.147E-01  0.598E-03  0.168E-02  0.174E-02  0.379E-02  0.174E-02  0.379E-02  0.598E-03  0.168E-02  0.174E-02  0.379E-02
  29.500  0.624E-02  0.143E-01  0.581E-03  0.164E-02  0.169E-02  0.368E-02  0.169E-02  0.368E-02  0.581E-03  0.164E-02  0.169E-02  0.368E-02
  29.600  0.610E-02  0.139E-01  0.565E-03  0.160E-02  0.166E-02  0.358E-02  0.166E-02  0.358E-02  0.565E-03  0.160E-02  0.166E-02  0.358E-02
  29.700  0.592E-02  0.136E-01  0.549E-03  0.156E-02  0.161E-02  0.349E-02  0.161E-02  0.349E-02  0.549E-03  0.156E-02  0.161E-02  0.349E-02
  29.800  0.577E-02  0.132E-01  0.534E-03  0.152E-02  0.157E-02  0.339E-02  0.157E-02  0.339E-02  0.534E-03  0.152E-02  0.157E-02  0.339E-02
  29.900  0.560E-02  0.129E-01  0.517E-03  0.148E-02  0.152E-02  0.331E-02  0.152E-02  0.331E-02  0.517E-03  0.148E-02  0.152E-02  0.331E-02
  30.000  0.542E-02  0.125E-01  0.500E-03  0.144E-02  0.147E-02  0.322E-02  0.147E-02  0.322E-02  0.500E-03  0.144E-02  0.147E-02  0.322E-02
  30.100  0.524E-02  0.122E-01  0.484E-03  0.140E-02  0.142E-02  0.314E-02  0.142E-02  0.314E-02  0.484E-03  0.140E-02  0.142E-02  0.314E-02
