#  E (eV)   dosup(E)     dosdw(E)   Int dos(E) EFermi =   21.345 eV
   5.000  0.0000E+00  0.0000E+00  0.8000E+01
   5.050  0.0000E+00  0.0000E+00  0.8000E+01
   5.100  0.0000E+00  0.0000E+00  0.8000E+01
   5.150  0.0000E+00  0.0000E+00  0.8000E+01
   5.200  0.0000E+00  0.0000E+00  0.8000E+01
   5.250  0.0000E+00  0.0000E+00  0.8000E+01
   5.300  0.0000E+00  0.0000E+00  0.8000E+01
   5.350  0.0000E+00  0.0000E+00  0.8000E+01
   5.400  0.0000E+00  0.0000E+00  0.8000E+01
   5.450  0.0000E+00  0.0000E+00  0.8000E+01
   5.500  0.0000E+00  0.0000E+00  0.8000E+01
   5.550  0.0000E+00  0.0000E+00  0.8000E+01
   5.600  0.0000E+00  0.0000E+00  0.8000E+01
   5.650  0.0000E+00  0.0000E+00  0.8000E+01
   5.700  0.0000E+00  0.0000E+00  0.8000E+01
   5.750  0.0000E+00  0.0000E+00  0.8000E+01
   5.800  0.0000E+00  0.0000E+00  0.8000E+01
   5.850  0.0000E+00  0.0000E+00  0.8000E+01
   5.900  0.0000E+00  0.0000E+00  0.8000E+01
   5.950  0.0000E+00  0.0000E+00  0.8000E+01
   6.000  0.0000E+00  0.0000E+00  0.8000E+01
   6.050  0.0000E+00  0.0000E+00  0.8000E+01
   6.100  0.0000E+00  0.0000E+00  0.8000E+01
   6.150  0.0000E+00  0.0000E+00  0.8000E+01
   6.200  0.0000E+00  0.0000E+00  0.8000E+01
   6.250  0.0000E+00  0.0000E+00  0.8000E+01
   6.300  0.0000E+00  0.0000E+00  0.8000E+01
   6.350  0.0000E+00  0.0000E+00  0.8000E+01
   6.400  0.0000E+00  0.0000E+00  0.8000E+01
   6.450  0.0000E+00  0.0000E+00  0.8000E+01
   6.500  0.0000E+00  0.0000E+00  0.8000E+01
   6.550  0.0000E+00  0.0000E+00  0.8000E+01
   6.600  0.0000E+00  0.0000E+00  0.8000E+01
   6.650  0.0000E+00  0.0000E+00  0.8000E+01
   6.700  0.0000E+00  0.0000E+00  0.8000E+01
   6.750  0.0000E+00  0.0000E+00  0.8000E+01
   6.800  0.0000E+00  0.0000E+00  0.8000E+01
   6.850  0.0000E+00  0.0000E+00  0.8000E+01
   6.900  0.0000E+00  0.0000E+00  0.8000E+01
   6.950  0.0000E+00  0.0000E+00  0.8000E+01
   7.000  0.0000E+00  0.0000E+00  0.8000E+01
   7.050  0.0000E+00  0.0000E+00  0.8000E+01
   7.100  0.0000E+00  0.0000E+00  0.8000E+01
   7.150  0.0000E+00  0.0000E+00  0.8000E+01
   7.200  0.0000E+00  0.0000E+00  0.8000E+01
   7.250  0.0000E+00  0.0000E+00  0.8000E+01
   7.300  0.0000E+00  0.0000E+00  0.8000E+01
   7.350  0.0000E+00  0.0000E+00  0.8000E+01
   7.400  0.0000E+00  0.0000E+00  0.8000E+01
   7.450  0.0000E+00  0.0000E+00  0.8000E+01
   7.500  0.0000E+00  0.0000E+00  0.8000E+01
   7.550  0.0000E+00  0.0000E+00  0.8000E+01
   7.600  0.0000E+00  0.0000E+00  0.8000E+01
   7.650  0.0000E+00  0.0000E+00  0.8000E+01
   7.700  0.0000E+00  0.0000E+00  0.8000E+01
   7.750  0.0000E+00  0.0000E+00  0.8000E+01
   7.800  0.0000E+00  0.0000E+00  0.8000E+01
   7.850  0.0000E+00  0.0000E+00  0.8000E+01
   7.900  0.0000E+00  0.0000E+00  0.8000E+01
   7.950  0.0000E+00  0.0000E+00  0.8000E+01
   8.000  0.0000E+00  0.0000E+00  0.8000E+01
   8.050  0.0000E+00  0.0000E+00  0.8000E+01
   8.100  0.0000E+00  0.0000E+00  0.8000E+01
   8.150  0.0000E+00  0.0000E+00  0.8000E+01
   8.200  0.0000E+00  0.0000E+00  0.8000E+01
   8.250  0.0000E+00  0.0000E+00  0.8000E+01
   8.300  0.0000E+00  0.0000E+00  0.8000E+01
   8.350  0.0000E+00  0.0000E+00  0.8000E+01
   8.400  0.0000E+00  0.0000E+00  0.8000E+01
   8.450  0.0000E+00  0.0000E+00  0.8000E+01
   8.500  0.0000E+00  0.0000E+00  0.8000E+01
   8.550  0.0000E+00  0.0000E+00  0.8000E+01
   8.600  0.0000E+00  0.0000E+00  0.8000E+01
   8.650  0.0000E+00  0.0000E+00  0.8000E+01
   8.700  0.0000E+00  0.0000E+00  0.8000E+01
   8.750  0.0000E+00  0.0000E+00  0.8000E+01
   8.800  0.0000E+00  0.0000E+00  0.8000E+01
   8.850  0.0000E+00  0.0000E+00  0.8000E+01
   8.900  0.0000E+00  0.0000E+00  0.8000E+01
   8.950  0.0000E+00  0.0000E+00  0.8000E+01
   9.000  0.0000E+00  0.0000E+00  0.8000E+01
   9.050  0.0000E+00  0.0000E+00  0.8000E+01
   9.100  0.0000E+00  0.0000E+00  0.8000E+01
   9.150  0.0000E+00  0.0000E+00  0.8000E+01
   9.200  0.0000E+00  0.0000E+00  0.8000E+01
   9.250  0.0000E+00  0.0000E+00  0.8000E+01
   9.300  0.0000E+00  0.0000E+00  0.8000E+01
   9.350  0.0000E+00  0.0000E+00  0.8000E+01
   9.400  0.0000E+00  0.0000E+00  0.8000E+01
   9.450  0.0000E+00  0.0000E+00  0.8000E+01
   9.500  0.0000E+00  0.0000E+00  0.8000E+01
   9.550  0.0000E+00  0.0000E+00  0.8000E+01
   9.600  0.0000E+00  0.0000E+00  0.8000E+01
   9.650  0.0000E+00  0.0000E+00  0.8000E+01
   9.700  0.0000E+00  0.0000E+00  0.8000E+01
   9.750  0.0000E+00  0.0000E+00  0.8000E+01
   9.800  0.0000E+00  0.0000E+00  0.8000E+01
   9.850  0.0000E+00  0.0000E+00  0.8000E+01
   9.900  0.0000E+00  0.0000E+00  0.8000E+01
   9.950  0.0000E+00  0.0000E+00  0.8000E+01
  10.000  0.0000E+00  0.0000E+00  0.8000E+01
  10.050  0.0000E+00  0.0000E+00  0.8000E+01
  10.100  0.0000E+00  0.0000E+00  0.8000E+01
  10.150  0.0000E+00  0.0000E+00  0.8000E+01
  10.200  0.0000E+00  0.0000E+00  0.8000E+01
  10.250  0.0000E+00  0.0000E+00  0.8000E+01
  10.300  0.0000E+00  0.0000E+00  0.8000E+01
  10.350  0.0000E+00  0.0000E+00  0.8000E+01
  10.400  0.0000E+00  0.0000E+00  0.8000E+01
  10.450  0.0000E+00  0.0000E+00  0.8000E+01
  10.500  0.0000E+00  0.0000E+00  0.8000E+01
  10.550  0.0000E+00  0.0000E+00  0.8000E+01
  10.600  0.0000E+00  0.0000E+00  0.8000E+01
  10.650  0.0000E+00  0.0000E+00  0.8000E+01
  10.700  0.0000E+00  0.0000E+00  0.8000E+01
  10.750  0.0000E+00  0.0000E+00  0.8000E+01
  10.800  0.0000E+00  0.0000E+00  0.8000E+01
  10.850  0.0000E+00  0.0000E+00  0.8000E+01
  10.900  0.0000E+00  0.0000E+00  0.8000E+01
  10.950  0.0000E+00  0.0000E+00  0.8000E+01
  11.000  0.0000E+00  0.0000E+00  0.8000E+01
  11.050  0.0000E+00  0.0000E+00  0.8000E+01
  11.100  0.0000E+00  0.0000E+00  0.8000E+01
  11.150  0.0000E+00  0.0000E+00  0.8000E+01
  11.200  0.0000E+00  0.0000E+00  0.8000E+01
  11.250  0.0000E+00  0.0000E+00  0.8000E+01
  11.300  0.0000E+00  0.0000E+00  0.8000E+01
  11.350  0.0000E+00  0.0000E+00  0.8000E+01
  11.400  0.0000E+00  0.0000E+00  0.8000E+01
  11.450  0.0000E+00  0.0000E+00  0.8000E+01
  11.500  0.0000E+00  0.0000E+00  0.8000E+01
  11.550  0.0000E+00  0.0000E+00  0.8000E+01
  11.600  0.0000E+00  0.0000E+00  0.8000E+01
  11.650  0.0000E+00  0.0000E+00  0.8000E+01
  11.700  0.0000E+00  0.0000E+00  0.8000E+01
  11.750  0.0000E+00  0.0000E+00  0.8000E+01
  11.800  0.0000E+00  0.0000E+00  0.8000E+01
  11.850  0.0000E+00  0.0000E+00  0.8000E+01
  11.900  0.0000E+00  0.0000E+00  0.8000E+01
  11.950  0.0000E+00  0.0000E+00  0.8000E+01
  12.000  0.0000E+00  0.0000E+00  0.8000E+01
  12.050  0.4223E-02  0.4248E-02  0.8000E+01
  12.100  0.6612E-02  0.6615E-02  0.8001E+01
  12.150  0.8899E-02  0.8902E-02  0.8001E+01
  12.200  0.1161E-01  0.1161E-01  0.8002E+01
  12.250  0.1361E-01  0.1361E-01  0.8004E+01
  12.300  0.1397E-01  0.1397E-01  0.8005E+01
  12.350  0.1542E-01  0.1542E-01  0.8007E+01
  12.400  0.1692E-01  0.1693E-01  0.8008E+01
  12.450  0.1848E-01  0.1848E-01  0.8010E+01
  12.500  0.2009E-01  0.2009E-01  0.8012E+01
  12.550  0.2108E-01  0.2108E-01  0.8014E+01
  12.600  0.2195E-01  0.2196E-01  0.8016E+01
  12.650  0.2274E-01  0.2274E-01  0.8018E+01
  12.700  0.2361E-01  0.2361E-01  0.8021E+01
  12.750  0.2461E-01  0.2461E-01  0.8023E+01
  12.800  0.2580E-01  0.2580E-01  0.8026E+01
  12.850  0.2703E-01  0.2703E-01  0.8028E+01
  12.900  0.2831E-01  0.2831E-01  0.8031E+01
  12.950  0.2949E-01  0.2949E-01  0.8034E+01
  13.000  0.3009E-01  0.3009E-01  0.8037E+01
  13.050  0.3089E-01  0.3090E-01  0.8040E+01
  13.100  0.3172E-01  0.3172E-01  0.8043E+01
  13.150  0.3259E-01  0.3259E-01  0.8046E+01
  13.200  0.3344E-01  0.3344E-01  0.8049E+01
  13.250  0.3448E-01  0.3448E-01  0.8053E+01
  13.300  0.3554E-01  0.3554E-01  0.8056E+01
  13.350  0.3663E-01  0.3663E-01  0.8060E+01
  13.400  0.3769E-01  0.3769E-01  0.8064E+01
  13.450  0.3879E-01  0.3879E-01  0.8068E+01
  13.500  0.3980E-01  0.3980E-01  0.8071E+01
  13.550  0.4069E-01  0.4069E-01  0.8075E+01
  13.600  0.4139E-01  0.4139E-01  0.8080E+01
  13.650  0.4236E-01  0.4236E-01  0.8084E+01
  13.700  0.4337E-01  0.4337E-01  0.8088E+01
  13.750  0.4439E-01  0.4440E-01  0.8092E+01
  13.800  0.4543E-01  0.4543E-01  0.8097E+01
  13.850  0.4643E-01  0.4643E-01  0.8102E+01
  13.900  0.4747E-01  0.4747E-01  0.8106E+01
  13.950  0.4872E-01  0.4872E-01  0.8111E+01
  14.000  0.4985E-01  0.4986E-01  0.8116E+01
  14.050  0.5106E-01  0.5107E-01  0.8121E+01
  14.100  0.5234E-01  0.5234E-01  0.8126E+01
  14.150  0.5360E-01  0.5360E-01  0.8131E+01
  14.200  0.5453E-01  0.5453E-01  0.8137E+01
  14.250  0.5565E-01  0.5565E-01  0.8142E+01
  14.300  0.5691E-01  0.5691E-01  0.8148E+01
  14.350  0.5815E-01  0.5815E-01  0.8154E+01
  14.400  0.5940E-01  0.5940E-01  0.8160E+01
  14.450  0.6086E-01  0.6087E-01  0.8166E+01
  14.500  0.6241E-01  0.6241E-01  0.8172E+01
  14.550  0.6385E-01  0.6386E-01  0.8178E+01
  14.600  0.6537E-01  0.6537E-01  0.8185E+01
  14.650  0.6681E-01  0.6681E-01  0.8191E+01
  14.700  0.6831E-01  0.6832E-01  0.8198E+01
  14.750  0.7015E-01  0.7016E-01  0.8205E+01
  14.800  0.7213E-01  0.7213E-01  0.8212E+01
  14.850  0.7423E-01  0.7424E-01  0.8219E+01
  14.900  0.7643E-01  0.7643E-01  0.8227E+01
  14.950  0.7775E-01  0.7776E-01  0.8235E+01
  15.000  0.7989E-01  0.7990E-01  0.8242E+01
  15.050  0.8219E-01  0.8219E-01  0.8251E+01
  15.100  0.8466E-01  0.8467E-01  0.8259E+01
  15.150  0.8707E-01  0.8708E-01  0.8267E+01
  15.200  0.8997E-01  0.8998E-01  0.8276E+01
  15.250  0.9299E-01  0.9300E-01  0.8285E+01
  15.300  0.9618E-01  0.9619E-01  0.8295E+01
  15.350  0.9955E-01  0.9955E-01  0.8305E+01
  15.400  0.1026E+00  0.1026E+00  0.8315E+01
  15.450  0.1069E+00  0.1069E+00  0.8325E+01
  15.500  0.1117E+00  0.1117E+00  0.8336E+01
  15.550  0.1171E+00  0.1171E+00  0.8348E+01
  15.600  0.1226E+00  0.1226E+00  0.8360E+01
  15.650  0.1282E+00  0.1282E+00  0.8372E+01
  15.700  0.1348E+00  0.1348E+00  0.8385E+01
  15.750  0.1433E+00  0.1433E+00  0.8399E+01
  15.800  0.1524E+00  0.1524E+00  0.8414E+01
  15.850  0.1678E+00  0.1678E+00  0.8430E+01
  15.900  0.1842E+00  0.1843E+00  0.8448E+01
  15.950  0.2134E+00  0.2135E+00  0.8467E+01
  16.000  0.3918E+00  0.3922E+00  0.8493E+01
  16.050  0.3620E+00  0.3620E+00  0.8529E+01
  16.100  0.3764E+00  0.3764E+00  0.8566E+01
  16.150  0.3687E+00  0.3687E+00  0.8604E+01
  16.200  0.3930E+00  0.3923E+00  0.8641E+01
  16.250  0.4163E+00  0.4164E+00  0.8681E+01
  16.300  0.4394E+00  0.4394E+00  0.8724E+01
  16.350  0.4467E+00  0.4468E+00  0.8768E+01
  16.400  0.4637E+00  0.4638E+00  0.8814E+01
  16.450  0.4789E+00  0.4790E+00  0.8861E+01
  16.500  0.4961E+00  0.4962E+00  0.8910E+01
  16.550  0.5139E+00  0.5140E+00  0.8960E+01
  16.600  0.5287E+00  0.5288E+00  0.9012E+01
  16.650  0.5435E+00  0.5436E+00  0.9066E+01
  16.700  0.5655E+00  0.5656E+00  0.9122E+01
  16.750  0.5882E+00  0.5883E+00  0.9179E+01
  16.800  0.6246E+00  0.6248E+00  0.9240E+01
  16.850  0.6696E+00  0.6698E+00  0.9305E+01
  16.900  0.7219E+00  0.7223E+00  0.9374E+01
  16.950  0.9044E+00  0.9055E+00  0.9453E+01
  17.000  0.9290E+00  0.9295E+00  0.9546E+01
  17.050  0.7649E+00  0.7640E+00  0.9633E+01
  17.100  0.6450E+00  0.6447E+00  0.9703E+01
  17.150  0.5804E+00  0.5803E+00  0.9763E+01
  17.200  0.5321E+00  0.5320E+00  0.9819E+01
  17.250  0.5052E+00  0.5051E+00  0.9871E+01
  17.300  0.4810E+00  0.4809E+00  0.9920E+01
  17.350  0.4775E+00  0.4775E+00  0.9968E+01
  17.400  0.4550E+00  0.4549E+00  0.1001E+02
  17.450  0.4465E+00  0.4460E+00  0.1006E+02
  17.500  0.3645E+00  0.3644E+00  0.1010E+02
  17.550  0.3251E+00  0.3250E+00  0.1013E+02
  17.600  0.2956E+00  0.2955E+00  0.1017E+02
  17.650  0.2810E+00  0.2810E+00  0.1019E+02
  17.700  0.2672E+00  0.2671E+00  0.1022E+02
  17.750  0.2550E+00  0.2549E+00  0.1025E+02
  17.800  0.2517E+00  0.2527E+00  0.1027E+02
  17.850  0.6549E+00  0.6566E+00  0.1032E+02
  17.900  0.9936E+00  0.9948E+00  0.1040E+02
  17.950  0.1388E+01  0.1390E+01  0.1052E+02
  18.000  0.1531E+01  0.1530E+01  0.1067E+02
  18.050  0.1352E+01  0.1352E+01  0.1081E+02
  18.100  0.1236E+01  0.1235E+01  0.1094E+02
  18.150  0.1025E+01  0.1024E+01  0.1105E+02
  18.200  0.9483E+00  0.9482E+00  0.1115E+02
  18.250  0.9064E+00  0.9063E+00  0.1124E+02
  18.300  0.8829E+00  0.8828E+00  0.1133E+02
  18.350  0.8673E+00  0.8673E+00  0.1142E+02
  18.400  0.8654E+00  0.8655E+00  0.1150E+02
  18.450  0.8735E+00  0.8735E+00  0.1159E+02
  18.500  0.8872E+00  0.8873E+00  0.1168E+02
  18.550  0.9154E+00  0.9155E+00  0.1177E+02
  18.600  0.9130E+00  0.9129E+00  0.1186E+02
  18.650  0.8308E+00  0.8303E+00  0.1195E+02
  18.700  0.8271E+00  0.8275E+00  0.1203E+02
  18.750  0.8630E+00  0.8631E+00  0.1212E+02
  18.800  0.8942E+00  0.8943E+00  0.1220E+02
  18.850  0.9338E+00  0.9341E+00  0.1230E+02
  18.900  0.1106E+01  0.1107E+01  0.1239E+02
  18.950  0.1298E+01  0.1298E+01  0.1251E+02
  19.000  0.1304E+01  0.1303E+01  0.1265E+02
  19.050  0.1157E+01  0.1157E+01  0.1277E+02
  19.100  0.1117E+01  0.1117E+01  0.1288E+02
  19.150  0.1040E+01  0.1039E+01  0.1299E+02
  19.200  0.9163E+00  0.9160E+00  0.1309E+02
  19.250  0.8535E+00  0.8538E+00  0.1318E+02
  19.300  0.8389E+00  0.8390E+00  0.1326E+02
  19.350  0.7701E+00  0.7696E+00  0.1334E+02
  19.400  0.4461E+00  0.4506E+00  0.1341E+02
  19.450  0.3841E+00  0.3840E+00  0.1345E+02
  19.500  0.3677E+00  0.3680E+00  0.1348E+02
  19.550  0.3377E+00  0.3377E+00  0.1352E+02
  19.600  0.3206E+00  0.3206E+00  0.1355E+02
  19.650  0.3046E+00  0.3045E+00  0.1358E+02
  19.700  0.2993E+00  0.2993E+00  0.1361E+02
  19.750  0.3018E+00  0.3018E+00  0.1364E+02
  19.800  0.2933E+00  0.2933E+00  0.1367E+02
  19.850  0.2898E+00  0.2898E+00  0.1370E+02
  19.900  0.2916E+00  0.2917E+00  0.1373E+02
  19.950  0.2937E+00  0.2937E+00  0.1376E+02
  20.000  0.2997E+00  0.2998E+00  0.1379E+02
  20.050  0.3103E+00  0.3104E+00  0.1382E+02
  20.100  0.3162E+00  0.3163E+00  0.1385E+02
  20.150  0.3218E+00  0.3218E+00  0.1388E+02
  20.200  0.3367E+00  0.3368E+00  0.1392E+02
  20.250  0.3553E+00  0.3554E+00  0.1395E+02
  20.300  0.3780E+00  0.3782E+00  0.1399E+02
  20.350  0.4056E+00  0.4057E+00  0.1403E+02
  20.400  0.4390E+00  0.4392E+00  0.1407E+02
  20.450  0.4832E+00  0.4832E+00  0.1411E+02
  20.500  0.5234E+00  0.5236E+00  0.1416E+02
  20.550  0.6054E+00  0.6062E+00  0.1422E+02
  20.600  0.7541E+00  0.7544E+00  0.1429E+02
  20.650  0.7808E+00  0.7810E+00  0.1437E+02
  20.700  0.8180E+00  0.8182E+00  0.1445E+02
  20.750  0.8672E+00  0.8675E+00  0.1453E+02
  20.800  0.9045E+00  0.9047E+00  0.1462E+02
  20.850  0.9589E+00  0.9593E+00  0.1471E+02
  20.900  0.1048E+01  0.1048E+01  0.1481E+02
  20.950  0.1170E+01  0.1170E+01  0.1492E+02
  21.000  0.1316E+01  0.1316E+01  0.1505E+02
  21.050  0.1316E+01  0.1316E+01  0.1518E+02
  21.100  0.1317E+01  0.1317E+01  0.1531E+02
  21.150  0.1300E+01  0.1300E+01  0.1544E+02
  21.200  0.1322E+01  0.1323E+01  0.1557E+02
  21.250  0.1390E+01  0.1392E+01  0.1571E+02
  21.300  0.1619E+01  0.1620E+01  0.1586E+02
  21.350  0.1456E+01  0.1456E+01  0.1602E+02
  21.400  0.1377E+01  0.1377E+01  0.1616E+02
  21.450  0.1466E+01  0.1468E+01  0.1630E+02
  21.500  0.1633E+01  0.1634E+01  0.1646E+02
  21.550  0.1844E+01  0.1848E+01  0.1663E+02
  21.600  0.4505E+01  0.4605E+01  0.1688E+02
  21.650  0.1443E+01  0.1441E+01  0.1707E+02
  21.700  0.1187E+01  0.1186E+01  0.1721E+02
  21.750  0.1020E+01  0.1019E+01  0.1732E+02
  21.800  0.9127E+00  0.9122E+00  0.1741E+02
  21.850  0.8450E+00  0.8446E+00  0.1750E+02
  21.900  0.7846E+00  0.7842E+00  0.1758E+02
  21.950  0.7630E+00  0.7622E+00  0.1766E+02
  22.000  0.7122E+00  0.7121E+00  0.1773E+02
  22.050  0.6901E+00  0.6900E+00  0.1780E+02
  22.100  0.6738E+00  0.6737E+00  0.1787E+02
  22.150  0.6645E+00  0.6644E+00  0.1794E+02
  22.200  0.6477E+00  0.6477E+00  0.1800E+02
  22.250  0.6389E+00  0.6386E+00  0.1807E+02
  22.300  0.6202E+00  0.6200E+00  0.1813E+02
  22.350  0.6080E+00  0.6081E+00  0.1819E+02
  22.400  0.6138E+00  0.6138E+00  0.1825E+02
  22.450  0.6049E+00  0.6049E+00  0.1831E+02
  22.500  0.6915E+00  0.6913E+00  0.1838E+02
  22.550  0.4729E+00  0.4726E+00  0.1843E+02
  22.600  0.4145E+00  0.4144E+00  0.1848E+02
  22.650  0.3519E+00  0.3517E+00  0.1852E+02
  22.700  0.2996E+00  0.2994E+00  0.1855E+02
  22.750  0.2476E+00  0.2473E+00  0.1858E+02
  22.800  0.1962E+00  0.1960E+00  0.1860E+02
  22.850  0.1719E+00  0.1718E+00  0.1862E+02
  22.900  0.1601E+00  0.1601E+00  0.1863E+02
  22.950  0.1575E+00  0.1575E+00  0.1865E+02
  23.000  0.1570E+00  0.1570E+00  0.1867E+02
  23.050  0.1561E+00  0.1561E+00  0.1868E+02
  23.100  0.1545E+00  0.1545E+00  0.1870E+02
  23.150  0.1526E+00  0.1526E+00  0.1871E+02
  23.200  0.1515E+00  0.1515E+00  0.1873E+02
  23.250  0.1510E+00  0.1510E+00  0.1874E+02
  23.300  0.1485E+00  0.1485E+00  0.1876E+02
  23.350  0.1468E+00  0.1468E+00  0.1877E+02
  23.400  0.1457E+00  0.1457E+00  0.1879E+02
  23.450  0.1448E+00  0.1448E+00  0.1880E+02
  23.500  0.1441E+00  0.1441E+00  0.1882E+02
  23.550  0.1435E+00  0.1435E+00  0.1883E+02
  23.600  0.1426E+00  0.1426E+00  0.1884E+02
  23.650  0.1414E+00  0.1414E+00  0.1886E+02
  23.700  0.1403E+00  0.1403E+00  0.1887E+02
  23.750  0.1396E+00  0.1396E+00  0.1889E+02
  23.800  0.1393E+00  0.1393E+00  0.1890E+02
  23.850  0.1386E+00  0.1386E+00  0.1891E+02
  23.900  0.1379E+00  0.1379E+00  0.1893E+02
  23.950  0.1374E+00  0.1374E+00  0.1894E+02
  24.000  0.1368E+00  0.1367E+00  0.1896E+02
  24.050  0.1359E+00  0.1359E+00  0.1897E+02
  24.100  0.1352E+00  0.1352E+00  0.1898E+02
  24.150  0.1344E+00  0.1344E+00  0.1900E+02
  24.200  0.1335E+00  0.1335E+00  0.1901E+02
  24.250  0.1331E+00  0.1331E+00  0.1902E+02
  24.300  0.1326E+00  0.1326E+00  0.1904E+02
  24.350  0.1318E+00  0.1318E+00  0.1905E+02
  24.400  0.1312E+00  0.1312E+00  0.1906E+02
  24.450  0.1307E+00  0.1306E+00  0.1908E+02
  24.500  0.1301E+00  0.1301E+00  0.1909E+02
  24.550  0.1294E+00  0.1294E+00  0.1910E+02
  24.600  0.1286E+00  0.1286E+00  0.1912E+02
  24.650  0.1278E+00  0.1278E+00  0.1913E+02
  24.700  0.1272E+00  0.1272E+00  0.1914E+02
  24.750  0.1265E+00  0.1265E+00  0.1915E+02
  24.800  0.1259E+00  0.1259E+00  0.1917E+02
  24.850  0.1254E+00  0.1254E+00  0.1918E+02
  24.900  0.1247E+00  0.1247E+00  0.1919E+02
  24.950  0.1238E+00  0.1238E+00  0.1920E+02
  25.000  0.1228E+00  0.1228E+00  0.1922E+02
